2theta,Intensity
10,370
10.01,353
10.02,354
10.03,361
10.04,341
10.05,398
10.06,387
10.07,386
10.08,365
10.09,349
10.1,374
10.11,366
10.12,379
10.13,350
10.14,361
10.15,351
10.16,340
10.17,354
10.18,352
10.19,370
10.2,371
10.21,390
10.22,355
10.23,351
10.24,372
10.25,381
10.26,345
10.27,337
10.28,357
10.29,364
10.3,347
10.31,349
10.32,337
10.33,330
10.34,360
10.35,331
10.36,326
10.37,328
10.38,343
10.39,345
10.4,363
10.41,342
10.42,346
10.43,334
10.44,345
10.45,327
10.46,361
10.47,367
10.48,329
10.49,346
10.5,331
10.51,352
10.52,361
10.53,352
10.54,357
10.55,355
10.56,364
10.57,365
10.58,340
10.59,345
10.6,338
10.61,314
10.62,342
10.63,343
10.64,365
10.65,344
10.66,349
10.67,320
10.68,338
10.69,331
10.7,332
10.71,344
10.72,351
10.73,348
10.74,352
10.75,329
10.76,349
10.77,344
10.78,340
10.79,329
10.8,394
10.81,369
10.82,356
10.83,346
10.84,325
10.85,348
10.86,331
10.87,346
10.88,343
10.89,345
10.9,350
10.91,358
10.92,355
10.93,353
10.94,366
10.95,335
10.96,351
10.97,354
10.98,394
10.99,405
11,428
11.01,392
11.02,419
11.03,392
11.04,429
11.05,440
11.06,426
11.07,404
11.08,410
11.09,390
11.1,361
11.11,370
11.12,312
11.13,320
11.14,347
11.15,333
11.16,337
11.17,324
11.18,355
11.19,329
11.2,348
11.21,301
11.22,322
11.23,330
11.24,351
11.25,336
11.26,298
11.27,363
11.28,291
11.29,308
11.3,334
11.31,331
11.32,341
11.33,334
11.34,354
11.35,296
11.36,328
11.37,335
11.38,357
11.39,339
11.4,377
11.41,332
11.42,361
11.43,340
11.44,329
11.45,313
11.46,342
11.47,352
11.48,357
11.49,281
11.5,339
11.51,342
11.52,313
11.53,306
11.54,330
11.55,309
11.56,321
11.57,339
11.58,318
11.59,330
11.6,346
11.61,334
11.62,344
11.63,324
11.64,339
11.65,346
11.66,331
11.67,332
11.68,360
11.69,340
11.7,323
11.71,330
11.72,336
11.73,335
11.74,330
11.75,363
11.76,323
11.77,312
11.78,311
11.79,365
11.8,350
11.81,313
11.82,340
11.83,351
11.84,355
11.85,311
11.86,389
11.87,350
11.88,384
11.89,330
11.9,336
11.91,363
11.92,344
11.93,372
11.94,365
11.95,383
11.96,387
11.97,358
11.98,409
11.99,406
12,399
12.01,394
12.02,423
12.03,391
12.04,426
12.05,425
12.06,439
12.07,441
12.08,476
12.09,462
12.1,480
12.11,508
12.12,559
12.13,557
12.14,584
12.15,594
12.16,661
12.17,669
12.18,724
12.19,778
12.2,850
12.21,945
12.22,966
12.23,1111
12.24,1103
12.25,1262
12.26,1263
12.27,1204
12.28,1034
12.29,853
12.3,732
12.31,616
12.32,526
12.33,467
12.34,419
12.35,380
12.36,384
12.37,365
12.38,387
12.39,336
12.4,373
12.41,306
12.42,364
12.43,325
12.44,332
12.45,334
12.46,324
12.47,318
12.48,326
12.49,329
12.5,307
12.51,319
12.52,321
12.53,306
12.54,309
12.55,307
12.56,306
12.57,310
12.58,319
12.59,305
12.6,311
12.61,312
12.62,336
12.63,339
12.64,347
12.65,318
12.66,290
12.67,306
12.68,312
12.69,291
12.7,316
12.71,290
12.72,305
12.73,300
12.74,300
12.75,301
12.76,298
12.77,331
12.78,296
12.79,304
12.8,279
12.81,340
12.82,302
12.83,297
12.84,311
12.85,292
12.86,317
12.87,297
12.88,302
12.89,307
12.9,302
12.91,313
12.92,324
12.93,312
12.94,308
12.95,336
12.96,318
12.97,311
12.98,301
12.99,339
13,315
13.01,327
13.02,299
13.03,324
13.04,301
13.05,320
13.06,331
13.07,342
13.08,301
13.09,313
13.1,316
13.11,294
13.12,319
13.13,297
13.14,306
13.15,331
13.16,311
13.17,302
13.18,298
13.19,331
13.2,326
13.21,329
13.22,309
13.23,302
13.24,290
13.25,341
13.26,309
13.27,331
13.28,315
13.29,309
13.3,311
13.31,301
13.32,320
13.33,310
13.34,300
13.35,301
13.36,271
13.37,300
13.38,320
13.39,296
13.4,292
13.41,307
13.42,292
13.43,316
13.44,293
13.45,297
13.46,314
13.47,281
13.48,312
13.49,311
13.5,317
13.51,286
13.52,309
13.53,293
13.54,306
13.55,316
13.56,278
13.57,302
13.58,282
13.59,276
13.6,293
13.61,286
13.62,288
13.63,310
13.64,295
13.65,318
13.66,313
13.67,311
13.68,271
13.69,312
13.7,303
13.71,311
13.72,305
13.73,339
13.74,320
13.75,302
13.76,328
13.77,309
13.78,334
13.79,316
13.8,325
13.81,317
13.82,337
13.83,356
13.84,339
13.85,347
13.86,342
13.87,334
13.88,356
13.89,344
13.9,293
13.91,316
13.92,300
13.93,306
13.94,318
13.95,301
13.96,311
13.97,324
13.98,285
13.99,289
14,311
14.01,312
14.02,320
14.03,304
14.04,286
14.05,294
14.06,292
14.07,290
14.08,294
14.09,288
14.1,323
14.11,296
14.12,297
14.13,290
14.14,291
14.15,328
14.16,306
14.17,270
14.18,294
14.19,263
14.2,285
14.21,291
14.22,299
14.23,312
14.24,293
14.25,315
14.26,309
14.27,320
14.28,338
14.29,314
14.3,314
14.31,302
14.32,327
14.33,308
14.34,303
14.35,329
14.36,343
14.37,371
14.38,320
14.39,353
14.4,376
14.41,339
14.42,343
14.43,363
14.44,326
14.45,340
14.46,308
14.47,306
14.48,304
14.49,324
14.5,301
14.51,297
14.52,324
14.53,307
14.54,293
14.55,275
14.56,319
14.57,291
14.58,302
14.59,291
14.6,295
14.61,299
14.62,305
14.63,293
14.64,309
14.65,308
14.66,303
14.67,316
14.68,321
14.69,328
14.7,327
14.71,347
14.72,330
14.73,320
14.74,346
14.75,306
14.76,322
14.77,363
14.78,346
14.79,350
14.8,325
14.81,314
14.82,346
14.83,371
14.84,358
14.85,415
14.86,383
14.87,371
14.88,372
14.89,368
14.9,416
14.91,433
14.92,405
14.93,437
14.94,412
14.95,423
14.96,446
14.97,473
14.98,464
14.99,480
15,501
15.01,537
15.02,542
15.03,553
15.04,552
15.05,613
15.06,642
15.07,665
15.08,676
15.09,738
15.1,771
15.11,769
15.12,846
15.13,897
15.14,948
15.15,982
15.16,1034
15.17,1155
15.18,1235
15.19,1272
15.2,1410
15.21,1540
15.22,1673
15.23,1830
15.24,2009
15.25,2210
15.26,2402
15.27,2749
15.28,2971
15.29,3352
15.3,3823
15.31,4353
15.32,4828
15.33,5298
15.34,5705
15.35,5915
15.36,5578
15.37,4881
15.38,3989
15.39,3268
15.4,2626
15.41,2047
15.42,1412
15.43,1020
15.44,842
15.45,696
15.46,596
15.47,565
15.48,560
15.49,492
15.5,473
15.51,447
15.52,418
15.53,419
15.54,414
15.55,405
15.56,387
15.57,396
15.58,345
15.59,355
15.6,371
15.61,313
15.62,350
15.63,336
15.64,320
15.65,353
15.66,340
15.67,345
15.68,331
15.69,338
15.7,321
15.71,325
15.72,297
15.73,327
15.74,293
15.75,319
15.76,324
15.77,321
15.78,314
15.79,308
15.8,302
15.81,320
15.82,327
15.83,304
15.84,274
15.85,291
15.86,324
15.87,306
15.88,279
15.89,308
15.9,350
15.91,320
15.92,315
15.93,307
15.94,332
15.95,308
15.96,278
15.97,303
15.98,312
15.99,324
16,290
16.01,305
16.02,302
16.03,301
16.04,289
16.05,293
16.06,287
16.07,286
16.08,287
16.09,316
16.1,284
16.11,269
16.12,302
16.13,281
16.14,297
16.15,303
16.16,268
16.17,305
16.18,321
16.19,291
16.2,325
16.21,314
16.22,301
16.23,310
16.24,287
16.25,311
16.26,262
16.27,291
16.28,291
16.29,315
16.3,297
16.31,293
16.32,305
16.33,309
16.34,326
16.35,293
16.36,319
16.37,290
16.38,295
16.39,306
16.4,295
16.41,333
16.42,328
16.43,326
16.44,302
16.45,324
16.46,305
16.47,355
16.48,333
16.49,348
16.5,339
16.51,312
16.52,348
16.53,324
16.54,309
16.55,299
16.56,317
16.57,312
16.58,311
16.59,312
16.6,338
16.61,300
16.62,325
16.63,295
16.64,317
16.65,290
16.66,337
16.67,281
16.68,315
16.69,297
16.7,336
16.71,301
16.72,311
16.73,297
16.74,322
16.75,270
16.76,311
16.77,296
16.78,295
16.79,338
16.8,306
16.81,316
16.82,344
16.83,329
16.84,286
16.85,281
16.86,292
16.87,273
16.88,304
16.89,315
16.9,315
16.91,309
16.92,307
16.93,305
16.94,287
16.95,312
16.96,305
16.97,313
16.98,339
16.99,318
17,296
17.01,299
17.02,334
17.03,297
17.04,331
17.05,333
17.06,312
17.07,325
17.08,360
17.09,352
17.1,338
17.11,321
17.12,329
17.13,308
17.14,338
17.15,310
17.16,298
17.17,302
17.18,293
17.19,278
17.2,305
17.21,303
17.22,282
17.23,291
17.24,303
17.25,291
17.26,307
17.27,288
17.28,276
17.29,298
17.3,325
17.31,300
17.32,293
17.33,318
17.34,333
17.35,331
17.36,312
17.37,316
17.38,331
17.39,287
17.4,337
17.41,333
17.42,323
17.43,293
17.44,312
17.45,323
17.46,315
17.47,324
17.48,318
17.49,306
17.5,312
17.51,303
17.52,314
17.53,298
17.54,294
17.55,303
17.56,326
17.57,310
17.58,345
17.59,312
17.6,333
17.61,323
17.62,337
17.63,336
17.64,295
17.65,318
17.66,301
17.67,340
17.68,345
17.69,355
17.7,325
17.71,311
17.72,317
17.73,344
17.74,314
17.75,357
17.76,323
17.77,322
17.78,329
17.79,339
17.8,347
17.81,314
17.82,326
17.83,332
17.84,342
17.85,336
17.86,346
17.87,338
17.88,365
17.89,364
17.9,380
17.91,354
17.92,369
17.93,364
17.94,412
17.95,338
17.96,377
17.97,365
17.98,365
17.99,362
18,343
18.01,336
18.02,347
18.03,359
18.04,327
18.05,330
18.06,347
18.07,318
18.08,346
18.09,304
18.1,329
18.11,349
18.12,347
18.13,362
18.14,317
18.15,333
18.16,333
18.17,351
18.18,307
18.19,350
18.2,339
18.21,314
18.22,328
18.23,345
18.24,366
18.25,374
18.26,349
18.27,329
18.28,361
18.29,356
18.3,362
18.31,337
18.32,346
18.33,354
18.34,357
18.35,347
18.36,388
18.37,397
18.38,388
18.39,405
18.4,361
18.41,387
18.42,398
18.43,416
18.44,398
18.45,459
18.46,458
18.47,426
18.48,414
18.49,414
18.5,432
18.51,433
18.52,407
18.53,428
18.54,432
18.55,384
18.56,413
18.57,414
18.58,412
18.59,431
18.6,418
18.61,436
18.62,485
18.63,473
18.64,469
18.65,478
18.66,469
18.67,525
18.68,508
18.69,518
18.7,609
18.71,632
18.72,629
18.73,671
18.74,753
18.75,773
18.76,844
18.77,924
18.78,979
18.79,1030
18.8,1160
18.81,1291
18.82,1284
18.83,1521
18.84,1754
18.85,1901
18.86,2147
18.87,2409
18.88,2780
18.89,2997
18.9,3452
18.91,3865
18.92,3937
18.93,3985
18.94,3582
18.95,2944
18.96,2528
18.97,2189
18.98,1919
18.99,1490
19,1072
19.01,814
19.02,637
19.03,550
19.04,504
19.05,450
19.06,449
19.07,417
19.08,411
19.09,413
19.1,393
19.11,401
19.12,396
19.13,382
19.14,377
19.15,403
19.16,372
19.17,364
19.18,386
19.19,390
19.2,365
19.21,407
19.22,348
19.23,450
19.24,399
19.25,448
19.26,430
19.27,430
19.28,467
19.29,439
19.3,479
19.31,482
19.32,542
19.33,553
19.34,538
19.35,563
19.36,619
19.37,668
19.38,672
19.39,751
19.4,808
19.41,840
19.42,1004
19.43,1021
19.44,1099
19.45,1182
19.46,1208
19.47,1274
19.48,1168
19.49,1103
19.5,979
19.51,877
19.52,810
19.53,769
19.54,624
19.55,596
19.56,518
19.57,463
19.58,430
19.59,367
19.6,412
19.61,344
19.62,383
19.63,356
19.64,330
19.65,353
19.66,374
19.67,371
19.68,328
19.69,372
19.7,354
19.71,355
19.72,352
19.73,350
19.74,367
19.75,322
19.76,325
19.77,349
19.78,316
19.79,328
19.8,302
19.81,334
19.82,324
19.83,332
19.84,310
19.85,312
19.86,365
19.87,356
19.88,352
19.89,371
19.9,377
19.91,325
19.92,336
19.93,336
19.94,375
19.95,348
19.96,339
19.97,338
19.98,362
19.99,362
20,352
20.01,363
20.02,357
20.03,366
20.04,390
20.05,380
20.06,357
20.07,353
20.08,374
20.09,370
20.1,377
20.11,381
20.12,372
20.13,331
20.14,349
20.15,359
20.16,346
20.17,315
20.18,376
20.19,342
20.2,354
20.21,349
20.22,345
20.23,335
20.24,333
20.25,313
20.26,363
20.27,381
20.28,362
20.29,384
20.3,360
20.31,367
20.32,388
20.33,414
20.34,399
20.35,414
20.36,411
20.37,416
20.38,440
20.39,445
20.4,469
20.41,520
20.42,520
20.43,552
20.44,559
20.45,618
20.46,662
20.47,664
20.48,713
20.49,772
20.5,811
20.51,907
20.52,1001
20.53,1085
20.54,1150
20.55,1295
20.56,1430
20.57,1621
20.58,1809
20.59,1975
20.6,2252
20.61,2534
20.62,2791
20.63,3044
20.64,3178
20.65,3093
20.66,2892
20.67,2534
20.68,2256
20.69,1924
20.7,1649
20.71,1430
20.72,1140
20.73,876
20.74,697
20.75,601
20.76,511
20.77,459
20.78,415
20.79,416
20.8,422
20.81,401
20.82,332
20.83,355
20.84,337
20.85,345
20.86,328
20.87,337
20.88,324
20.89,305
20.9,328
20.91,299
20.92,308
20.93,269
20.94,303
20.95,285
20.96,289
20.97,297
20.98,276
20.99,281
21,324
21.01,286
21.02,292
21.03,292
21.04,301
21.05,283
21.06,272
21.07,278
21.08,274
21.09,296
21.1,286
21.11,259
21.12,248
21.13,280
21.14,261
21.15,255
21.16,276
21.17,272
21.18,255
21.19,271
21.2,287
21.21,278
21.22,258
21.23,261
21.24,264
21.25,272
21.26,244
21.27,246
21.28,263
21.29,268
21.3,237
21.31,271
21.32,285
21.33,280
21.34,283
21.35,255
21.36,237
21.37,272
21.38,244
21.39,262
21.4,277
21.41,273
21.42,283
21.43,244
21.44,275
21.45,268
21.46,251
21.47,281
21.48,270
21.49,281
21.5,261
21.51,248
21.52,254
21.53,258
21.54,279
21.55,271
21.56,251
21.57,271
21.58,262
21.59,275
21.6,253
21.61,236
21.62,255
21.63,235
21.64,253
21.65,254
21.66,218
21.67,266
21.68,269
21.69,232
21.7,266
21.71,243
21.72,235
21.73,255
21.74,234
21.75,263
21.76,267
21.77,259
21.78,267
21.79,255
21.8,261
21.81,267
21.82,251
21.83,256
21.84,254
21.85,252
21.86,293
21.87,254
21.88,249
21.89,240
21.9,262
21.91,263
21.92,280
21.93,286
21.94,284
21.95,270
21.96,261
21.97,281
21.98,271
21.99,299
22,299
22.01,285
22.02,289
22.03,321
22.04,310
22.05,340
22.06,302
22.07,334
22.08,334
22.09,327
22.1,372
22.11,369
22.12,381
22.13,416
22.14,416
22.15,481
22.16,494
22.17,513
22.18,605
22.19,606
22.2,667
22.21,660
22.22,751
22.23,734
22.24,714
22.25,656
22.26,621
22.27,578
22.28,563
22.29,480
22.3,446
22.31,363
22.32,352
22.33,323
22.34,290
22.35,281
22.36,303
22.37,281
22.38,270
22.39,244
22.4,231
22.41,260
22.42,246
22.43,257
22.44,252
22.45,270
22.46,257
22.47,256
22.48,227
22.49,237
22.5,250
22.51,253
22.52,269
22.53,259
22.54,256
22.55,234
22.56,222
22.57,241
22.58,266
22.59,279
22.6,241
22.61,237
22.62,228
22.63,252
22.64,242
22.65,243
22.66,229
22.67,229
22.68,237
22.69,235
22.7,250
22.71,241
22.72,244
22.73,223
22.74,255
22.75,249
22.76,247
22.77,206
22.78,231
22.79,232
22.8,236
22.81,224
22.82,259
22.83,234
22.84,232
22.85,231
22.86,255
22.87,230
22.88,224
22.89,255
22.9,255
22.91,243
22.92,240
22.93,249
22.94,236
22.95,219
22.96,221
22.97,241
22.98,234
22.99,216
23,260
23.01,237
23.02,228
23.03,234
23.04,217
23.05,251
23.06,250
23.07,238
23.08,249
23.09,237
23.1,229
23.11,242
23.12,237
23.13,241
23.14,238
23.15,239
23.16,221
23.17,232
23.18,214
23.19,233
23.2,268
23.21,250
23.22,281
23.23,271
23.24,232
23.25,258
23.26,236
23.27,254
23.28,218
23.29,228
23.3,254
23.31,235
23.32,240
23.33,211
23.34,220
23.35,217
23.36,216
23.37,221
23.38,245
23.39,233
23.4,216
23.41,253
23.42,238
23.43,252
23.44,261
23.45,257
23.46,261
23.47,267
23.48,241
23.49,258
23.5,255
23.51,241
23.52,237
23.53,242
23.54,224
23.55,242
23.56,236
23.57,265
23.58,294
23.59,277
23.6,233
23.61,240
23.62,236
23.63,240
23.64,244
23.65,270
23.66,264
23.67,273
23.68,240
23.69,254
23.7,237
23.71,234
23.72,259
23.73,251
23.74,233
23.75,270
23.76,267
23.77,245
23.78,249
23.79,256
23.8,254
23.81,241
23.82,252
23.83,278
23.84,262
23.85,263
23.86,248
23.87,262
23.88,271
23.89,275
23.9,283
23.91,288
23.92,286
23.93,240
23.94,244
23.95,253
23.96,260
23.97,263
23.98,259
23.99,233
24,288
24.01,232
24.02,254
24.03,215
24.04,262
24.05,268
24.06,271
24.07,240
24.08,223
24.09,234
24.1,241
24.11,245
24.12,237
24.13,231
24.14,238
24.15,214
24.16,221
24.17,246
24.18,239
24.19,236
24.2,218
24.21,250
24.22,223
24.23,234
24.24,245
24.25,207
24.26,254
24.27,243
24.28,268
24.29,229
24.3,221
24.31,237
24.32,242
24.33,232
24.34,244
24.35,241
24.36,238
24.37,238
24.38,240
24.39,234
24.4,241
24.41,189
24.42,248
24.43,247
24.44,269
24.45,248
24.46,232
24.47,237
24.48,260
24.49,289
24.5,280
24.51,235
24.52,235
24.53,261
24.54,265
24.55,243
24.56,269
24.57,252
24.58,273
24.59,293
24.6,306
24.61,301
24.62,312
24.63,348
24.64,376
24.65,414
24.66,399
24.67,397
24.68,402
24.69,448
24.7,381
24.71,364
24.72,354
24.73,331
24.74,307
24.75,300
24.76,319
24.77,272
24.78,273
24.79,242
24.8,231
24.81,244
24.82,228
24.83,238
24.84,235
24.85,225
24.86,257
24.87,243
24.88,248
24.89,224
24.9,232
24.91,250
24.92,221
24.93,230
24.94,246
24.95,236
24.96,250
24.97,260
24.98,248
24.99,244
25,215
25.01,221
25.02,243
25.03,227
25.04,246
25.05,247
25.06,230
25.07,255
25.08,258
25.09,254
25.1,258
25.11,280
25.12,255
25.13,276
25.14,246
25.15,278
25.16,237
25.17,277
25.18,273
25.19,277
25.2,266
25.21,281
25.22,290
25.23,270
25.24,304
25.25,270
25.26,274
25.27,289
25.28,324
25.29,305
25.3,283
25.31,274
25.32,291
25.33,279
25.34,276
25.35,268
25.36,271
25.37,280
25.38,281
25.39,247
25.4,252
25.41,267
25.42,254
25.43,245
25.44,277
25.45,259
25.46,261
25.47,244
25.48,271
25.49,271
25.5,264
25.51,275
25.52,270
25.53,262
25.54,258
25.55,276
25.56,255
25.57,275
25.58,257
25.59,256
25.6,282
25.61,260
25.62,269
25.63,273
25.64,293
25.65,246
25.66,242
25.67,243
25.68,273
25.69,294
25.7,272
25.71,255
25.72,267
25.73,288
25.74,278
25.75,313
25.76,316
25.77,271
25.78,271
25.79,279
25.8,281
25.81,293
25.82,282
25.83,257
25.84,251
25.85,238
25.86,248
25.87,253
25.88,239
25.89,278
25.9,245
25.91,268
25.92,288
25.93,303
25.94,323
25.95,342
25.96,311
25.97,319
25.98,344
25.99,343
26,333
26.01,371
26.02,386
26.03,436
26.04,416
26.05,473
26.06,513
26.07,534
26.08,572
26.09,590
26.1,688
26.11,748
26.12,744
26.13,846
26.14,997
26.15,1134
26.16,1253
26.17,1377
26.18,1517
26.19,1684
26.2,1853
26.21,2041
26.22,2058
26.23,1960
26.24,1931
26.25,1643
26.26,1494
26.27,1367
26.28,1347
26.29,1223
26.3,1167
26.31,1024
26.32,840
26.33,763
26.34,662
26.35,647
26.36,638
26.37,662
26.38,694
26.39,678
26.4,663
26.41,593
26.42,577
26.43,505
26.44,495
26.45,501
26.46,471
26.47,423
26.48,414
26.49,354
26.5,330
26.51,338
26.52,307
26.53,324
26.54,287
26.55,289
26.56,280
26.57,275
26.58,289
26.59,286
26.6,296
26.61,269
26.62,270
26.63,260
26.64,232
26.65,260
26.66,248
26.67,248
26.68,261
26.69,267
26.7,266
26.71,264
26.72,240
26.73,230
26.74,246
26.75,258
26.76,284
26.77,266
26.78,252
26.79,261
26.8,258
26.81,240
26.82,240
26.83,247
26.84,255
26.85,253
26.86,260
26.87,255
26.88,264
26.89,269
26.9,227
26.91,252
26.92,246
26.93,244
26.94,241
26.95,282
26.96,270
26.97,268
26.98,274
26.99,271
27,263
27.01,254
27.02,208
27.03,257
27.04,239
27.05,240
27.06,235
27.07,280
27.08,268
27.09,276
27.1,244
27.11,239
27.12,262
27.13,223
27.14,254
27.15,207
27.16,244
27.17,263
27.18,268
27.19,271
27.2,240
27.21,250
27.22,258
27.23,253
27.24,251
27.25,254
27.26,264
27.27,245
27.28,251
27.29,248
27.3,268
27.31,285
27.32,273
27.33,280
27.34,274
27.35,293
27.36,274
27.37,279
27.38,251
27.39,304
27.4,277
27.41,263
27.42,254
27.43,244
27.44,252
27.45,269
27.46,249
27.47,276
27.48,241
27.49,276
27.5,279
27.51,261
27.52,277
27.53,266
27.54,259
27.55,255
27.56,247
27.57,264
27.58,267
27.59,256
27.6,257
27.61,270
27.62,257
27.63,284
27.64,294
27.65,293
27.66,264
27.67,265
27.68,265
27.69,279
27.7,302
27.71,278
27.72,314
27.73,311
27.74,315
27.75,295
27.76,301
27.77,285
27.78,309
27.79,333
27.8,321
27.81,364
27.82,334
27.83,351
27.84,372
27.85,387
27.86,375
27.87,368
27.88,394
27.89,351
27.9,351
27.91,404
27.92,394
27.93,422
27.94,417
27.95,398
27.96,395
27.97,391
27.98,382
27.99,358
28,325
28.01,349
28.02,332
28.03,322
28.04,321
28.05,294
28.06,282
28.07,294
28.08,330
28.09,306
28.1,302
28.11,301
28.12,328
28.13,334
28.14,319
28.15,362
28.16,354
28.17,312
28.18,331
28.19,316
28.2,353
28.21,360
28.22,349
28.23,361
28.24,343
28.25,359
28.26,381
28.27,345
28.28,377
28.29,362
28.3,444
28.31,400
28.32,383
28.33,433
28.34,491
28.35,509
28.36,553
28.37,599
28.38,628
28.39,680
28.4,746
28.41,819
28.42,810
28.43,964
28.44,1097
28.45,1247
28.46,1375
28.47,1509
28.48,1721
28.49,2000
28.5,2353
28.51,2693
28.52,3102
28.53,3809
28.54,4248
28.55,4920
28.56,5059
28.57,4604
28.58,3963
28.59,3230
28.6,2728
28.61,2670
28.62,2753
28.63,2692
28.64,2409
28.65,1993
28.66,1441
28.67,1042
28.68,727
28.69,614
28.7,522
28.71,470
28.72,479
28.73,446
28.74,388
28.75,357
28.76,376
28.77,358
28.78,350
28.79,351
28.8,325
28.81,340
28.82,310
28.83,297
28.84,309
28.85,302
28.86,297
28.87,303
28.88,327
28.89,296
28.9,310
28.91,301
28.92,282
28.93,318
28.94,302
28.95,309
28.96,310
28.97,292
28.98,279
28.99,298
29,295
29.01,323
29.02,280
29.03,309
29.04,307
29.05,332
29.06,249
29.07,290
29.08,329
29.09,288
29.1,294
29.11,289
29.12,300
29.13,296
29.14,305
29.15,323
29.16,331
29.17,354
29.18,335
29.19,361
29.2,354
29.21,380
29.22,336
29.23,325
29.24,329
29.25,333
29.26,319
29.27,320
29.28,333
29.29,348
29.3,321
29.31,300
29.32,320
29.33,365
29.34,325
29.35,396
29.36,331
29.37,389
29.38,355
29.39,363
29.4,390
29.41,330
29.42,363
29.43,373
29.44,381
29.45,377
29.46,387
29.47,389
29.48,404
29.49,394
29.5,405
29.51,417
29.52,433
29.53,454
29.54,457
29.55,465
29.56,476
29.57,517
29.58,518
29.59,541
29.6,580
29.61,585
29.62,642
29.63,669
29.64,738
29.65,795
29.66,810
29.67,907
29.68,941
29.69,968
29.7,1021
29.71,1161
29.72,1085
29.73,1129
29.74,1013
29.75,941
29.76,954
29.77,933
29.78,879
29.79,893
29.8,791
29.81,813
29.82,773
29.83,638
29.84,609
29.85,541
29.86,561
29.87,567
29.88,512
29.89,476
29.9,462
29.91,464
29.92,448
29.93,439
29.94,454
29.95,484
29.96,430
29.97,463
29.98,429
29.99,435
30,434
30.01,461
30.02,442
30.03,460
30.04,455
30.05,460
30.06,460
30.07,469
30.08,472
30.09,508
30.1,542
30.11,544
30.12,598
30.13,582
30.14,602
30.15,656
30.16,680
30.17,739
30.18,753
30.19,814
30.2,825
30.21,856
30.22,936
30.23,984
30.24,1092
30.25,1076
30.26,1203
30.27,1304
30.28,1384
30.29,1506
30.3,1650
30.31,1779
30.32,1919
30.33,2015
30.34,2264
30.35,2409
30.36,2582
30.37,2662
30.38,2770
30.39,2735
30.4,2807
30.41,2772
30.42,2725
30.43,2723
30.44,2830
30.45,2753
30.46,2850
30.47,2826
30.48,2793
30.49,2801
30.5,2745
30.51,2700
30.52,2542
30.53,2443
30.54,2229
30.55,2033
30.56,1883
30.57,1809
30.58,1705
30.59,1683
30.6,1486
30.61,1333
30.62,1234
30.63,1169
30.64,1052
30.65,971
30.66,907
30.67,872
30.68,842
30.69,809
30.7,809
30.71,814
30.72,831
30.73,767
30.74,828
30.75,818
30.76,909
30.77,912
30.78,1005
30.79,1022
30.8,1092
30.81,1181
30.82,1249
30.83,1375
30.84,1513
30.85,1621
30.86,1838
30.87,2013
30.88,2368
30.89,2569
30.9,2928
30.91,3291
30.92,3696
30.93,4111
30.94,4787
30.95,5581
30.96,6501
30.97,7565
30.98,8670
30.99,9701
31,10422
31.01,10746
31.02,10312
31.03,9520
31.04,8750
31.05,8200
31.06,8078
31.07,8007
31.08,7596
31.09,6989
31.1,6066
31.11,4990
31.12,4188
31.13,3529
31.14,3155
31.15,2723
31.16,2219
31.17,1950
31.18,1662
31.19,1360
31.2,1151
31.21,1061
31.22,919
31.23,819
31.24,739
31.25,656
31.26,669
31.27,660
31.28,606
31.29,526
31.3,597
31.31,521
31.32,500
31.33,442
31.34,464
31.35,479
31.36,461
31.37,471
31.38,445
31.39,449
31.4,441
31.41,436
31.42,440
31.43,403
31.44,386
31.45,384
31.46,418
31.47,422
31.48,429
31.49,398
31.5,405
31.51,397
31.52,400
31.53,382
31.54,386
31.55,351
31.56,372
31.57,414
31.58,379
31.59,381
31.6,379
31.61,372
31.62,398
31.63,357
31.64,377
31.65,384
31.66,359
31.67,355
31.68,378
31.69,353
31.7,377
31.71,348
31.72,364
31.73,374
31.74,381
31.75,370
31.76,361
31.77,351
31.78,345
31.79,353
31.8,355
31.81,356
31.82,311
31.83,348
31.84,319
31.85,335
31.86,368
31.87,339
31.88,370
31.89,368
31.9,343
31.91,385
31.92,342
31.93,357
31.94,376
31.95,374
31.96,359
31.97,383
31.98,387
31.99,393
32,423
32.01,403
32.02,388
32.03,413
32.04,413
32.05,446
32.06,495
32.07,512
32.08,465
32.09,513
32.1,528
32.11,576
32.12,591
32.13,596
32.14,643
32.15,647
32.16,762
32.17,816
32.18,837
32.19,925
32.2,987
32.21,1087
32.22,1179
32.23,1231
32.24,1401
32.25,1469
32.26,1633
32.27,1764
32.28,1794
32.29,1998
32.3,2186
32.31,2417
32.32,2660
32.33,2882
32.34,3452
32.35,3855
32.36,4382
32.37,5051
32.38,5551
32.39,5772
32.4,5794
32.41,5497
32.42,4938
32.43,4170
32.44,3699
32.45,3469
32.46,3317
32.47,3416
32.48,3232
32.49,2855
32.5,2475
32.51,2007
32.52,1565
32.53,1300
32.54,1029
32.55,903
32.56,803
32.57,700
32.58,667
32.59,588
32.6,568
32.61,534
32.62,500
32.63,493
32.64,487
32.65,434
32.66,461
32.67,411
32.68,413
32.69,431
32.7,435
32.71,422
32.72,399
32.73,376
32.74,347
32.75,391
32.76,374
32.77,337
32.78,328
32.79,337
32.8,358
32.81,347
32.82,307
32.83,324
32.84,309
32.85,311
32.86,327
32.87,315
32.88,284
32.89,304
32.9,322
32.91,325
32.92,301
32.93,316
32.94,292
32.95,276
32.96,267
32.97,306
32.98,298
32.99,328
33,315
33.01,309
33.02,306
33.03,293
33.04,301
33.05,282
33.06,256
33.07,292
33.08,307
33.09,305
33.1,284
33.11,306
33.12,304
33.13,266
33.14,271
33.15,272
33.16,282
33.17,289
33.18,299
33.19,301
33.2,272
33.21,268
33.22,311
33.23,335
33.24,309
33.25,345
33.26,327
33.27,352
33.28,359
33.29,356
33.3,350
33.31,348
33.32,361
33.33,349
33.34,390
33.35,400
33.36,434
33.37,455
33.38,443
33.39,489
33.4,498
33.41,527
33.42,488
33.43,513
33.44,536
33.45,488
33.46,563
33.47,530
33.48,531
33.49,567
33.5,529
33.51,521
33.52,504
33.53,487
33.54,487
33.55,501
33.56,511
33.57,544
33.58,567
33.59,534
33.6,574
33.61,573
33.62,568
33.63,562
33.64,531
33.65,521
33.66,464
33.67,469
33.68,459
33.69,430
33.7,429
33.71,400
33.72,421
33.73,384
33.74,381
33.75,336
33.76,323
33.77,304
33.78,323
33.79,328
33.8,332
33.81,322
33.82,297
33.83,260
33.84,275
33.85,302
33.86,273
33.87,275
33.88,281
33.89,294
33.9,273
33.91,309
33.92,304
33.93,298
33.94,308
33.95,315
33.96,290
33.97,297
33.98,285
33.99,297
34,275
34.01,235
34.02,271
34.03,287
34.04,268
34.05,227
34.06,278
34.07,293
34.08,257
34.09,281
34.1,258
34.11,263
34.12,284
34.13,294
34.14,275
34.15,275
34.16,285
34.17,261
34.18,277
34.19,287
34.2,286
34.21,308
34.22,263
34.23,251
34.24,258
34.25,265
34.26,258
34.27,281
34.28,268
34.29,286
34.3,273
34.31,267
34.32,265
34.33,277
34.34,260
34.35,244
34.36,272
34.37,279
34.38,284
34.39,281
34.4,294
34.41,273
34.42,277
34.43,279
34.44,260
34.45,309
34.46,279
34.47,270
34.48,261
34.49,254
34.5,271
34.51,261
34.52,296
34.53,295
34.54,275
34.55,272
34.56,340
34.57,291
34.58,290
34.59,307
34.6,286
34.61,293
34.62,284
34.63,263
34.64,261
34.65,266
34.66,291
34.67,273
34.68,291
34.69,295
34.7,304
34.71,299
34.72,278
34.73,309
34.74,284
34.75,280
34.76,311
34.77,297
34.78,289
34.79,306
34.8,282
34.81,292
34.82,286
34.83,282
34.84,291
34.85,295
34.86,321
34.87,295
34.88,246
34.89,298
34.9,291
34.91,279
34.92,313
34.93,331
34.94,287
34.95,290
34.96,309
34.97,286
34.98,298
34.99,298
35,312
35.01,304
35.02,321
35.03,339
35.04,335
35.05,334
35.06,341
35.07,327
35.08,329
35.09,349
35.1,382
35.11,340
35.12,357
35.13,337
35.14,376
35.15,353
35.16,393
35.17,382
35.18,419
35.19,393
35.2,468
35.21,443
35.22,451
35.23,450
35.24,439
35.25,479
35.26,483
35.27,490
35.28,479
35.29,480
35.3,465
35.31,525
35.32,529
35.33,517
35.34,514
35.35,533
35.36,528
35.37,519
35.38,479
35.39,487
35.4,489
35.41,469
35.42,438
35.43,460
35.44,479
35.45,451
35.46,400
35.47,398
35.48,374
35.49,374
35.5,342
35.51,377
35.52,330
35.53,346
35.54,364
35.55,362
35.56,359
35.57,336
35.58,340
35.59,343
35.6,343
35.61,332
35.62,346
35.63,333
35.64,360
35.65,344
35.66,317
35.67,319
35.68,348
35.69,341
35.7,337
35.71,347
35.72,328
35.73,368
35.74,342
35.75,356
35.76,328
35.77,368
35.78,336
35.79,381
35.8,353
35.81,341
35.82,345
35.83,383
35.84,364
35.85,402
35.86,413
35.87,417
35.88,426
35.89,436
35.9,474
35.91,497
35.92,494
35.93,558
35.94,523
35.95,590
35.96,583
35.97,678
35.98,727
35.99,738
36,846
36.01,809
36.02,854
36.03,921
36.04,964
36.05,1089
36.06,1034
36.07,1071
36.08,1089
36.09,1136
36.1,1150
36.11,1168
36.12,1184
36.13,1173
36.14,1225
36.15,1349
36.16,1342
36.17,1362
36.18,1361
36.19,1430
36.2,1485
36.21,1502
36.22,1611
36.23,1655
36.24,1815
36.25,1915
36.26,2100
36.27,2297
36.28,2457
36.29,2692
36.3,3028
36.31,3163
36.32,3336
36.33,3285
36.34,3152
36.35,2761
36.36,2395
36.37,2091
36.38,1985
36.39,1939
36.4,1922
36.41,1883
36.42,1928
36.43,1697
36.44,1474
36.45,1194
36.46,1014
36.47,832
36.48,735
36.49,654
36.5,598
36.51,550
36.52,482
36.53,478
36.54,449
36.55,499
36.56,450
36.57,358
36.58,370
36.59,364
36.6,372
36.61,384
36.62,326
36.63,346
36.64,356
36.65,327
36.66,334
36.67,346
36.68,361
36.69,317
36.7,307
36.71,312
36.72,298
36.73,314
36.74,306
36.75,335
36.76,301
36.77,319
36.78,288
36.79,279
36.8,276
36.81,311
36.82,316
36.83,298
36.84,315
36.85,313
36.86,290
36.87,289
36.88,278
36.89,286
36.9,305
36.91,272
36.92,304
36.93,284
36.94,302
36.95,302
36.96,308
36.97,299
36.98,306
36.99,319
37,281
37.01,296
37.02,335
37.03,303
37.04,354
37.05,322
37.06,333
37.07,321
37.08,320
37.09,312
37.1,351
37.11,323
37.12,364
37.13,355
37.14,313
37.15,325
37.16,369
37.17,352
37.18,318
37.19,295
37.2,379
37.21,337
37.22,358
37.23,369
37.24,363
37.25,362
37.26,390
37.27,423
37.28,405
37.29,474
37.3,475
37.31,484
37.32,569
37.33,562
37.34,601
37.35,664
37.36,718
37.37,788
37.38,865
37.39,973
37.4,998
37.41,1032
37.42,1051
37.43,1065
37.44,925
37.45,906
37.46,944
37.47,897
37.48,877
37.49,852
37.5,799
37.51,822
37.52,751
37.53,680
37.54,665
37.55,662
37.56,609
37.57,566
37.58,565
37.59,517
37.6,455
37.61,458
37.62,436
37.63,476
37.64,454
37.65,461
37.66,447
37.67,442
37.68,440
37.69,435
37.7,424
37.71,458
37.72,464
37.73,475
37.74,486
37.75,517
37.76,496
37.77,462
37.78,491
37.79,433
37.8,503
37.81,483
37.82,538
37.83,528
37.84,499
37.85,499
37.86,538
37.87,542
37.88,565
37.89,526
37.9,560
37.91,571
37.92,630
37.93,651
37.94,645
37.95,713
37.96,763
37.97,821
37.98,832
37.99,821
38,794
38.01,824
38.02,763
38.03,739
38.04,655
38.05,675
38.06,629
38.07,663
38.08,605
38.09,614
38.1,631
38.11,598
38.12,536
38.13,517
38.14,482
38.15,506
38.16,470
38.17,475
38.18,457
38.19,470
38.2,492
38.21,483
38.22,487
38.23,510
38.24,522
38.25,518
38.26,592
38.27,583
38.28,659
38.29,679
38.3,772
38.31,856
38.32,924
38.33,1077
38.34,1225
38.35,1414
38.36,1588
38.37,1911
38.38,2191
38.39,2498
38.4,2725
38.41,2895
38.42,2785
38.43,2323
38.44,1854
38.45,1576
38.46,1625
38.47,1650
38.48,1636
38.49,1702
38.5,1916
38.51,1952
38.52,1898
38.53,1745
38.54,1621
38.55,1648
38.56,1622
38.57,1817
38.58,1930
38.59,2036
38.6,2118
38.61,1998
38.62,1881
38.63,1676
38.64,1499
38.65,1365
38.66,1285
38.67,1278
38.68,1278
38.69,1275
38.7,1234
38.71,1278
38.72,1167
38.73,1002
38.74,919
38.75,848
38.76,725
38.77,719
38.78,675
38.79,665
38.8,657
38.81,615
38.82,610
38.83,702
38.84,706
38.85,701
38.86,730
38.87,743
38.88,821
38.89,866
38.9,925
38.91,935
38.92,1052
38.93,1092
38.94,1197
38.95,1234
38.96,1356
38.97,1448
38.98,1478
38.99,1480
39,1574
39.01,1517
39.02,1460
39.03,1447
39.04,1323
39.05,1312
39.06,1273
39.07,1215
39.08,1263
39.09,1158
39.1,1128
39.11,1095
39.12,990
39.13,876
39.14,847
39.15,792
39.16,724
39.17,708
39.18,650
39.19,600
39.2,559
39.21,547
39.22,544
39.23,536
39.24,503
39.25,493
39.26,471
39.27,503
39.28,452
39.29,429
39.3,419
39.31,443
39.32,433
39.33,449
39.34,492
39.35,475
39.36,449
39.37,474
39.38,491
39.39,494
39.4,535
39.41,539
39.42,568
39.43,605
39.44,632
39.45,638
39.46,682
39.47,744
39.48,800
39.49,845
39.5,1001
39.51,992
39.52,1068
39.53,1169
39.54,1284
39.55,1387
39.56,1393
39.57,1394
39.58,1258
39.59,1216
39.6,1127
39.61,1076
39.62,1043
39.63,972
39.64,960
39.65,902
39.66,1010
39.67,896
39.68,827
39.69,778
39.7,672
39.71,632
39.72,593
39.73,502
39.74,505
39.75,488
39.76,508
39.77,426
39.78,388
39.79,403
39.8,409
39.81,387
39.82,364
39.83,380
39.84,352
39.85,376
39.86,359
39.87,346
39.88,359
39.89,408
39.9,363
39.91,357
39.92,353
39.93,335
39.94,348
39.95,383
39.96,336
39.97,347
39.98,359
39.99,343
40,331
40.01,327
40.02,350
40.03,339
40.04,335
40.05,339
40.06,338
40.07,325
40.08,310
40.09,343
40.1,331
40.11,292
40.12,324
40.13,338
40.14,359
40.15,320
40.16,319
40.17,369
40.18,340
40.19,330
40.2,307
40.21,319
40.22,354
40.23,333
40.24,310
40.25,309
40.26,321
40.27,337
40.28,337
40.29,345
40.3,341
40.31,326
40.32,337
40.33,337
40.34,337
40.35,332
40.36,289
40.37,299
40.38,305
40.39,283
40.4,306
40.41,332
40.42,331
40.43,300
40.44,325
40.45,327
40.46,324
40.47,322
40.48,310
40.49,316
40.5,319
40.51,345
40.52,334
40.53,308
40.54,303
40.55,288
40.56,329
40.57,322
40.58,302
40.59,284
40.6,306
40.61,289
40.62,298
40.63,290
40.64,311
40.65,292
40.66,306
40.67,315
40.68,282
40.69,303
40.7,295
40.71,330
40.72,301
40.73,335
40.74,303
40.75,309
40.76,313
40.77,326
40.78,324
40.79,309
40.8,344
40.81,344
40.82,320
40.83,340
40.84,317
40.85,320
40.86,309
40.87,337
40.88,362
40.89,363
40.9,333
40.91,372
40.92,353
40.93,352
40.94,381
40.95,414
40.96,402
40.97,430
40.98,428
40.99,430
41,391
41.01,459
41.02,440
41.03,454
41.04,472
41.05,486
41.06,472
41.07,502
41.08,517
41.09,535
41.1,539
41.11,515
41.12,542
41.13,564
41.14,592
41.15,633
41.16,724
41.17,697
41.18,717
41.19,731
41.2,675
41.21,705
41.22,716
41.23,654
41.24,735
41.25,579
41.26,632
41.27,667
41.28,707
41.29,669
41.3,721
41.31,730
41.32,713
41.33,700
41.34,703
41.35,682
41.36,717
41.37,684
41.38,730
41.39,749
41.4,729
41.41,735
41.42,706
41.43,706
41.44,697
41.45,712
41.46,672
41.47,624
41.48,636
41.49,570
41.5,642
41.51,590
41.52,531
41.53,547
41.54,550
41.55,523
41.56,520
41.57,460
41.58,431
41.59,428
41.6,410
41.61,386
41.62,395
41.63,389
41.64,369
41.65,385
41.66,349
41.67,356
41.68,377
41.69,348
41.7,385
41.71,356
41.72,403
41.73,335
41.74,353
41.75,338
41.76,327
41.77,360
41.78,366
41.79,343
41.8,360
41.81,310
41.82,353
41.83,362
41.84,403
41.85,347
41.86,380
41.87,391
41.88,454
41.89,448
41.9,474
41.91,475
41.92,503
41.93,518
41.94,524
41.95,541
41.96,589
41.97,632
41.98,700
41.99,768
42,838
42.01,950
42.02,986
42.03,1133
42.04,1164
42.05,1209
42.06,1197
42.07,1151
42.08,1101
42.09,1029
42.1,927
42.11,898
42.12,851
42.13,836
42.14,828
42.15,832
42.16,776
42.17,775
42.18,767
42.19,671
42.2,659
42.21,606
42.22,525
42.23,460
42.24,464
42.25,455
42.26,437
42.27,374
42.28,393
42.29,383
42.3,410
42.31,358
42.32,330
42.33,337
42.34,319
42.35,327
42.36,325
42.37,305
42.38,341
42.39,331
42.4,348
42.41,298
42.42,351
42.43,331
42.44,298
42.45,303
42.46,327
42.47,304
42.48,315
42.49,322
42.5,311
42.51,346
42.52,305
42.53,338
42.54,323
42.55,334
42.56,296
42.57,301
42.58,304
42.59,316
42.6,287
42.61,320
42.62,321
42.63,333
42.64,324
42.65,322
42.66,318
42.67,319
42.68,294
42.69,336
42.7,296
42.71,296
42.72,342
42.73,320
42.74,301
42.75,313
42.76,332
42.77,326
42.78,307
42.79,317
42.8,322
42.81,304
42.82,297
42.83,318
42.84,301
42.85,311
42.86,289
42.87,300
42.88,292
42.89,322
42.9,285
42.91,301
42.92,291
42.93,298
42.94,304
42.95,344
42.96,293
42.97,338
42.98,312
42.99,315
43,293
43.01,305
43.02,337
43.03,323
43.04,326
43.05,273
43.06,317
43.07,352
43.08,311
43.09,316
43.1,310
43.11,294
43.12,302
43.13,328
43.14,354
43.15,347
43.16,345
43.17,345
43.18,336
43.19,329
43.2,371
43.21,339
43.22,355
43.23,338
43.24,351
43.25,385
43.26,368
43.27,380
43.28,379
43.29,372
43.3,387
43.31,378
43.32,374
43.33,392
43.34,366
43.35,375
43.36,369
43.37,369
43.38,375
43.39,388
43.4,383
43.41,361
43.42,394
43.43,387
43.44,384
43.45,413
43.46,398
43.47,372
43.48,382
43.49,406
43.5,402
43.51,414
43.52,442
43.53,377
43.54,404
43.55,411
43.56,431
43.57,449
43.58,463
43.59,439
43.6,434
43.61,470
43.62,458
43.63,455
43.64,467
43.65,467
43.66,481
43.67,456
43.68,495
43.69,434
43.7,450
43.71,484
43.72,443
43.73,506
43.74,475
43.75,465
43.76,468
43.77,457
43.78,465
43.79,426
43.8,464
43.81,448
43.82,453
43.83,430
43.84,442
43.85,399
43.86,410
43.87,410
43.88,405
43.89,372
43.9,416
43.91,429
43.92,410
43.93,388
43.94,385
43.95,384
43.96,383
43.97,362
43.98,396
43.99,347
44,375
44.01,373
44.02,386
44.03,389
44.04,370
44.05,370
44.06,378
44.07,379
44.08,354
44.09,391
44.1,383
44.11,354
44.12,384
44.13,393
44.14,364
44.15,374
44.16,391
44.17,361
44.18,405
44.19,411
44.2,373
44.21,369
44.22,396
44.23,402
44.24,442
44.25,401
44.26,428
44.27,389
44.28,405
44.29,400
44.3,400
44.31,440
44.32,415
44.33,447
44.34,441
44.35,419
44.36,480
44.37,450
44.38,446
44.39,431
44.4,483
44.41,471
44.42,504
44.43,546
44.44,514
44.45,543
44.46,549
44.47,563
44.48,645
44.49,680
44.5,763
44.51,771
44.52,820
44.53,874
44.54,883
44.55,926
44.56,922
44.57,900
44.58,863
44.59,828
44.6,802
44.61,793
44.62,743
44.63,691
44.64,708
44.65,689
44.66,668
44.67,675
44.68,694
44.69,631
44.7,640
44.71,591
44.72,564
44.73,521
44.74,490
44.75,462
44.76,465
44.77,447
44.78,455
44.79,435
44.8,453
44.81,438
44.82,439
44.83,414
44.84,396
44.85,450
44.86,447
44.87,448
44.88,487
44.89,468
44.9,522
44.91,525
44.92,569
44.93,613
44.94,614
44.95,743
44.96,745
44.97,812
44.98,902
44.99,889
45,906
45.01,832
45.02,774
45.03,767
45.04,631
45.05,578
45.06,608
45.07,656
45.08,614
45.09,633
45.1,632
45.11,646
45.12,647
45.13,585
45.14,538
45.15,441
45.16,468
45.17,433
45.18,395
45.19,413
45.2,387
45.21,385
45.22,368
45.23,387
45.24,400
45.25,434
45.26,400
45.27,441
45.28,424
45.29,455
45.3,451
45.31,499
45.32,519
45.33,562
45.34,594
45.35,603
45.36,650
45.37,676
45.38,727
45.39,743
45.4,723
45.41,688
45.42,682
45.43,716
45.44,619
45.45,665
45.46,649
45.47,687
45.48,647
45.49,659
45.5,669
45.51,611
45.52,599
45.53,615
45.54,568
45.55,637
45.56,605
45.57,636
45.58,597
45.59,623
45.6,628
45.61,609
45.62,573
45.63,614
45.64,629
45.65,606
45.66,561
45.67,537
45.68,524
45.69,465
45.7,478
45.71,488
45.72,454
45.73,466
45.74,421
45.75,491
45.76,436
45.77,405
45.78,421
45.79,406
45.8,402
45.81,385
45.82,349
45.83,355
45.84,334
45.85,309
45.86,326
45.87,332
45.88,307
45.89,310
45.9,319
45.91,322
45.92,306
45.93,299
45.94,325
45.95,319
45.96,343
45.97,352
45.98,374
45.99,322
46,321
46.01,304
46.02,308
46.03,324
46.04,299
46.05,322
46.06,334
46.07,351
46.08,351
46.09,342
46.1,360
46.11,374
46.12,376
46.13,391
46.14,400
46.15,437
46.16,438
46.17,441
46.18,494
46.19,502
46.2,549
46.21,564
46.22,591
46.23,634
46.24,625
46.25,696
46.26,762
46.27,820
46.28,830
46.29,808
46.3,892
46.31,895
46.32,874
46.33,805
46.34,789
46.35,744
46.36,760
46.37,746
46.38,707
46.39,718
46.4,739
46.41,671
46.42,661
46.43,652
46.44,612
46.45,598
46.46,510
46.47,493
46.48,492
46.49,455
46.5,438
46.51,413
46.52,400
46.53,386
46.54,376
46.55,376
46.56,338
46.57,350
46.58,350
46.59,334
46.6,347
46.61,327
46.62,304
46.63,320
46.64,333
46.65,314
46.66,303
46.67,303
46.68,305
46.69,299
46.7,297
46.71,301
46.72,283
46.73,277
46.74,308
46.75,342
46.76,317
46.77,315
46.78,286
46.79,318
46.8,296
46.81,308
46.82,283
46.83,284
46.84,305
46.85,305
46.86,312
46.87,304
46.88,304
46.89,286
46.9,322
46.91,302
46.92,319
46.93,349
46.94,325
46.95,360
46.96,325
46.97,316
46.98,327
46.99,335
47,322
47.01,338
47.02,325
47.03,349
47.04,381
47.05,397
47.06,355
47.07,398
47.08,399
47.09,384
47.1,422
47.11,433
47.12,424
47.13,446
47.14,475
47.15,466
47.16,462
47.17,527
47.18,483
47.19,512
47.2,516
47.21,480
47.22,483
47.23,454
47.24,516
47.25,506
47.26,486
47.27,495
47.28,521
47.29,514
47.3,502
47.31,505
47.32,491
47.33,467
47.34,462
47.35,453
47.36,426
47.37,450
47.38,430
47.39,433
47.4,410
47.41,431
47.42,447
47.43,384
47.44,412
47.45,402
47.46,366
47.47,418
47.48,387
47.49,390
47.5,402
47.51,378
47.52,402
47.53,389
47.54,406
47.55,378
47.56,425
47.57,397
47.58,393
47.59,411
47.6,450
47.61,431
47.62,447
47.63,427
47.64,403
47.65,430
47.66,449
47.67,421
47.68,388
47.69,409
47.7,377
47.71,420
47.72,399
47.73,430
47.74,422
47.75,403
47.76,434
47.77,421
47.78,428
47.79,415
47.8,418
47.81,431
47.82,395
47.83,393
47.84,424
47.85,399
47.86,398
47.87,416
47.88,393
47.89,378
47.9,403
47.91,406
47.92,410
47.93,384
47.94,408
47.95,405
47.96,448
47.97,437
47.98,445
47.99,474
48,486
48.01,468
48.02,530
48.03,529
48.04,541
48.05,538
48.06,544
48.07,550
48.08,516
48.09,435
48.1,490
48.11,453
48.12,483
48.13,416
48.14,476
48.15,467
48.16,462
48.17,451
48.18,466
48.19,438
48.2,449
48.21,416
48.22,406
48.23,381
48.24,384
48.25,398
48.26,392
48.27,408
48.28,384
48.29,385
48.3,395
48.31,390
48.32,397
48.33,425
48.34,472
48.35,451
48.36,490
48.37,508
48.38,523
48.39,506
48.4,590
48.41,614
48.42,638
48.43,639
48.44,728
48.45,815
48.46,862
48.47,884
48.48,961
48.49,1107
48.5,1168
48.51,1218
48.52,1258
48.53,1348
48.54,1447
48.55,1469
48.56,1451
48.57,1382
48.58,1258
48.59,1240
48.6,1173
48.61,1131
48.62,1135
48.63,1093
48.64,1033
48.65,1051
48.66,986
48.67,1011
48.68,939
48.69,910
48.7,932
48.71,805
48.72,767
48.73,696
48.74,607
48.75,587
48.76,549
48.77,501
48.78,489
48.79,499
48.8,471
48.81,419
48.82,439
48.83,400
48.84,396
48.85,351
48.86,383
48.87,364
48.88,346
48.89,394
48.9,342
48.91,342
48.92,347
48.93,354
48.94,378
48.95,298
48.96,339
48.97,331
48.98,333
48.99,340
49,321
49.01,330
49.02,340
49.03,331
49.04,309
49.05,324
49.06,331
49.07,332
49.08,345
49.09,320
49.1,327
49.11,366
49.12,322
49.13,309
49.14,359
49.15,335
49.16,313
49.17,324
49.18,306
49.19,315
49.2,337
49.21,326
49.22,374
49.23,352
49.24,354
49.25,333
49.26,328
49.27,303
49.28,288
49.29,329
49.3,320
49.31,312
49.32,328
49.33,323
49.34,306
49.35,300
49.36,345
49.37,334
49.38,310
49.39,312
49.4,302
49.41,339
49.42,330
49.43,297
49.44,311
49.45,310
49.46,303
49.47,323
49.48,315
49.49,307
49.5,317
49.51,328
49.52,350
49.53,332
49.54,353
49.55,331
49.56,334
49.57,360
49.58,378
49.59,375
49.6,382
49.61,378
49.62,396
49.63,429
49.64,431
49.65,384
49.66,434
49.67,402
49.68,415
49.69,422
49.7,445
49.71,426
49.72,416
49.73,422
49.74,385
49.75,410
49.76,407
49.77,397
49.78,369
49.79,394
49.8,363
49.81,372
49.82,398
49.83,398
49.84,405
49.85,372
49.86,336
49.87,352
49.88,351
49.89,359
49.9,349
49.91,336
49.92,361
49.93,326
49.94,323
49.95,325
49.96,341
49.97,341
49.98,324
49.99,309
50,319
50.01,350
50.02,327
50.03,334
50.04,306
50.05,305
50.06,314
50.07,316
50.08,317
50.09,304
50.1,329
50.11,310
50.12,317
50.13,315
50.14,290
50.15,317
50.16,312
50.17,343
50.18,332
50.19,330
50.2,347
50.21,347
50.22,304
50.23,299
50.24,310
50.25,317
50.26,317
50.27,303
50.28,297
50.29,323
50.3,318
50.31,308
50.32,293
50.33,342
50.34,297
50.35,334
50.36,305
50.37,301
50.38,293
50.39,306
50.4,276
50.41,292
50.42,275
50.43,287
50.44,278
50.45,276
50.46,265
50.47,264
50.48,281
50.49,286
50.5,287
50.51,256
50.52,274
50.53,277
50.54,264
50.55,271
50.56,300
50.57,277
50.58,287
50.59,263
50.6,285
50.61,249
50.62,279
50.63,289
50.64,263
50.65,291
50.66,278
50.67,283
50.68,279
50.69,303
50.7,289
50.71,281
50.72,294
50.73,282
50.74,285
50.75,292
50.76,292
50.77,302
50.78,310
50.79,309
50.8,300
50.81,310
50.82,302
50.83,305
50.84,311
50.85,284
50.86,291
50.87,313
50.88,284
50.89,302
50.9,308
50.91,342
50.92,338
50.93,378
50.94,342
50.95,350
50.96,374
50.97,407
50.98,363
50.99,362
51,431
51.01,416
51.02,438
51.03,448
51.04,465
51.05,500
51.06,506
51.07,524
51.08,576
51.09,629
51.1,636
51.11,657
51.12,746
51.13,743
51.14,798
51.15,869
51.16,865
51.17,856
51.18,839
51.19,800
51.2,808
51.21,801
51.22,729
51.23,709
51.24,698
51.25,655
51.26,682
51.27,659
51.28,691
51.29,694
51.3,629
51.31,631
51.32,635
51.33,586
51.34,581
51.35,540
51.36,524
51.37,542
51.38,519
51.39,497
51.4,459
51.41,453
51.42,503
51.43,514
51.44,455
51.45,501
51.46,500
51.47,539
51.48,519
51.49,560
51.5,558
51.51,617
51.52,591
51.53,578
51.54,603
51.55,570
51.56,571
51.57,583
51.58,532
51.59,510
51.6,494
51.61,493
51.62,507
51.63,498
51.64,479
51.65,475
51.66,474
51.67,439
51.68,451
51.69,443
51.7,421
51.71,466
51.72,394
51.73,389
51.74,381
51.75,337
51.76,360
51.77,374
51.78,365
51.79,295
51.8,307
51.81,349
51.82,357
51.83,328
51.84,324
51.85,347
51.86,352
51.87,335
51.88,331
51.89,315
51.9,324
51.91,341
51.92,346
51.93,324
51.94,337
51.95,320
51.96,326
51.97,323
51.98,309
51.99,301
52,316
52.01,311
52.02,339
52.03,308
52.04,298
52.05,299
52.06,354
52.07,287
52.08,336
52.09,307
52.1,295
52.11,304
52.12,287
52.13,324
52.14,295
52.15,266
52.16,298
52.17,293
52.18,299
52.19,299
52.2,272
52.21,296
52.22,275
52.23,296
52.24,277
52.25,293
52.26,296
52.27,285
52.28,293
52.29,286
52.3,312
52.31,297
52.32,294
52.33,271
52.34,296
52.35,306
52.36,306
52.37,265
52.38,307
52.39,295
52.4,295
52.41,286
52.42,315
52.43,295
52.44,304
52.45,300
52.46,304
52.47,293
52.48,263
52.49,305
52.5,328
52.51,296
52.52,310
52.53,322
52.54,290
52.55,323
52.56,288
52.57,299
52.58,322
52.59,304
52.6,319
52.61,279
52.62,311
52.63,330
52.64,303
52.65,296
52.66,291
52.67,325
52.68,311
52.69,291
52.7,304
52.71,296
52.72,346
52.73,338
52.74,319
52.75,324
52.76,339
52.77,332
52.78,345
52.79,362
52.8,359
52.81,400
52.82,383
52.83,397
52.84,410
52.85,404
52.86,393
52.87,398
52.88,404
52.89,391
52.9,332
52.91,350
52.92,331
52.93,366
52.94,321
52.95,342
52.96,371
52.97,403
52.98,381
52.99,357
53,367
53.01,354
53.02,347
53.03,303
53.04,300
53.05,328
53.06,321
53.07,308
53.08,332
53.09,322
53.1,312
53.11,289
53.12,301
53.13,334
53.14,329
53.15,298
53.16,317
53.17,306
53.18,326
53.19,315
53.2,320
53.21,323
53.22,319
53.23,350
53.24,311
53.25,320
53.26,312
53.27,301
53.28,346
53.29,352
53.3,322
53.31,335
53.32,333
53.33,312
53.34,331
53.35,339
53.36,325
53.37,302
53.38,332
53.39,290
53.4,359
53.41,321
53.42,326
53.43,332
53.44,330
53.45,319
53.46,336
53.47,320
53.48,339
53.49,331
53.5,324
53.51,323
53.52,328
53.53,332
53.54,325
53.55,324
53.56,357
53.57,349
53.58,340
53.59,316
53.6,344
53.61,357
53.62,357
53.63,347
53.64,370
53.65,339
53.66,370
53.67,344
53.68,375
53.69,393
53.7,399
53.71,379
53.72,363
53.73,397
53.74,429
53.75,442
53.76,429
53.77,428
53.78,445
53.79,412
53.8,467
53.81,413
53.82,420
53.83,464
53.84,464
53.85,474
53.86,486
53.87,475
53.88,503
53.89,521
53.9,550
53.91,570
53.92,558
53.93,554
53.94,588
53.95,586
53.96,623
53.97,586
53.98,662
53.99,696
54,695
54.01,760
54.02,810
54.03,794
54.04,830
54.05,913
54.06,902
54.07,1035
54.08,995
54.09,1079
54.1,1173
54.11,1197
54.12,1173
54.13,1085
54.14,947
54.15,935
54.16,863
54.17,862
54.18,869
54.19,808
54.2,823
54.21,748
54.22,765
54.23,784
54.24,828
54.25,787
54.26,769
54.27,795
54.28,733
54.29,655
54.3,659
54.31,553
54.32,510
54.33,541
54.34,513
54.35,480
54.36,456
54.37,465
54.38,405
54.39,382
54.4,398
54.41,413
54.42,384
54.43,447
54.44,409
54.45,375
54.46,365
54.47,375
54.48,364
54.49,366
54.5,365
54.51,343
54.52,309
54.53,382
54.54,355
54.55,361
54.56,342
54.57,340
54.58,287
54.59,343
54.6,363
54.61,313
54.62,360
54.63,362
54.64,347
54.65,375
54.66,355
54.67,359
54.68,421
54.69,419
54.7,429
54.71,418
54.72,441
54.73,455
54.74,445
54.75,404
54.76,410
54.77,382
54.78,398
54.79,360
54.8,390
54.81,385
54.82,401
54.83,391
54.84,402
54.85,377
54.86,400
54.87,379
54.88,371
54.89,406
54.9,363
54.91,372
54.92,358
54.93,349
54.94,328
54.95,316
54.96,312
54.97,299
54.98,319
54.99,312
55,317
55.01,278
55.02,311
55.03,290
55.04,323
55.05,297
55.06,301
55.07,286
55.08,292
55.09,287
55.1,285
55.11,272
55.12,294
55.13,260
55.14,277
55.15,255
55.16,257
55.17,309
55.18,286
55.19,319
55.2,235
55.21,281
55.22,261
55.23,261
55.24,261
55.25,256
55.26,256
55.27,260
55.28,273
55.29,252
55.3,270
55.31,294
55.32,299
55.33,273
55.34,269
55.35,288
55.36,284
55.37,254
55.38,278
55.39,295
55.4,285
55.41,312
55.42,294
55.43,266
55.44,274
55.45,295
55.46,303
55.47,294
55.48,319
55.49,307
55.5,318
55.51,289
55.52,298
55.53,313
55.54,320
55.55,318
55.56,293
55.57,273
55.58,289
55.59,299
55.6,299
55.61,310
55.62,302
55.63,295
55.64,289
55.65,289
55.66,289
55.67,283
55.68,269
55.69,278
55.7,301
55.71,291
55.72,306
55.73,265
55.74,279
55.75,296
55.76,285
55.77,240
55.78,307
55.79,306
55.8,287
55.81,300
55.82,284
55.83,275
55.84,271
55.85,297
55.86,251
55.87,295
55.88,260
55.89,294
55.9,273
55.91,282
55.92,259
55.93,310
55.94,304
55.95,296
55.96,284
55.97,302
55.98,273
55.99,286
56,272
56.01,311
56.02,266
56.03,260
56.04,269
56.05,274
56.06,240
56.07,248
56.08,248
56.09,254
56.1,275
56.11,262
56.12,249
56.13,251
56.14,246
56.15,263
56.16,240
56.17,258
56.18,250
56.19,230
56.2,249
56.21,268
56.22,255
56.23,242
56.24,231
56.25,248
56.26,240
56.27,246
56.28,255
56.29,237
56.3,232
56.31,236
56.32,201
56.33,241
56.34,236
56.35,225
56.36,243
56.37,241
56.38,203
56.39,217
56.4,241
56.41,225
56.42,220
56.43,244
56.44,221
56.45,233
56.46,227
56.47,225
56.48,260
56.49,226
56.5,229
56.51,198
56.52,221
56.53,255
56.54,255
56.55,255
56.56,267
56.57,218
56.58,244
56.59,251
56.6,236
56.61,267
56.62,242
56.63,212
56.64,230
56.65,273
56.66,279
56.67,231
56.68,253
56.69,260
56.7,279
56.71,258
56.72,266
56.73,258
56.74,274
56.75,276
56.76,278
56.77,255
56.78,262
56.79,288
56.8,288
56.81,294
56.82,280
56.83,310
56.84,290
56.85,301
56.86,311
56.87,307
56.88,318
56.89,312
56.9,325
56.91,322
56.92,296
56.93,332
56.94,333
56.95,317
56.96,302
56.97,324
56.98,336
56.99,307
57,286
57.01,337
57.02,297
57.03,308
57.04,333
57.05,359
57.06,331
57.07,352
57.08,384
57.09,389
57.1,353
57.11,380
57.12,414
57.13,395
57.14,432
57.15,451
57.16,448
57.17,451
57.18,522
57.19,510
57.2,538
57.21,573
57.22,543
57.23,563
57.24,586
57.25,582
57.26,560
57.27,544
57.28,518
57.29,546
57.3,497
57.31,511
57.32,509
57.33,524
57.34,508
57.35,531
57.36,534
57.37,511
57.38,502
57.39,494
57.4,501
57.41,482
57.42,507
57.43,489
57.44,495
57.45,457
57.46,507
57.47,507
57.48,493
57.49,518
57.5,540
57.51,518
57.52,542
57.53,535
57.54,571
57.55,592
57.56,568
57.57,632
57.58,634
57.59,705
57.6,669
57.61,692
57.62,657
57.63,679
57.64,734
57.65,740
57.66,748
57.67,759
57.68,734
57.69,714
57.7,670
57.71,655
57.72,635
57.73,608
57.74,621
57.75,583
57.76,622
57.77,542
57.78,557
57.79,533
57.8,560
57.81,545
57.82,575
57.83,571
57.84,527
57.85,553
57.86,538
57.87,517
57.88,515
57.89,477
57.9,486
57.91,510
57.92,532
57.93,506
57.94,525
57.95,544
57.96,555
57.97,549
57.98,567
57.99,547
58,549
58.01,517
58.02,556
58.03,499
58.04,467
58.05,491
58.06,436
58.07,420
58.08,409
58.09,488
58.1,430
58.11,459
58.12,439
58.13,444
58.14,483
58.15,440
58.16,427
58.17,439
58.18,447
58.19,428
58.2,395
58.21,406
58.22,368
58.23,385
58.24,377
58.25,379
58.26,390
58.27,434
58.28,383
58.29,414
58.3,379
58.31,403
58.32,461
58.33,489
58.34,540
58.35,512
58.36,527
58.37,492
58.38,563
58.39,564
58.4,549
58.41,521
58.42,487
58.43,481
58.44,491
58.45,457
58.46,429
58.47,432
58.48,444
58.49,435
58.5,493
58.51,504
58.52,472
58.53,516
58.54,482
58.55,463
58.56,436
58.57,461
58.58,429
58.59,470
58.6,403
58.61,417
58.62,409
58.63,432
58.64,417
58.65,418
58.66,390
58.67,453
58.68,452
58.69,435
58.7,498
58.71,526
58.72,558
58.73,574
58.74,640
58.75,707
58.76,755
58.77,789
58.78,798
58.79,793
58.8,839
58.81,776
58.82,676
58.83,655
58.84,626
58.85,572
58.86,613
58.87,553
58.88,596
58.89,602
58.9,611
58.91,587
58.92,696
58.93,696
58.94,698
58.95,768
58.96,758
58.97,799
58.98,787
58.99,729
59,708
59.01,818
59.02,880
59.03,950
59.04,1042
59.05,1210
59.06,1253
59.07,1411
59.08,1554
59.09,1719
59.1,1921
59.11,2035
59.12,2251
59.13,2354
59.14,2428
59.15,2277
59.16,2030
59.17,1764
59.18,1419
59.19,1253
59.2,1130
59.21,1158
59.22,1135
59.23,1029
59.24,1016
59.25,1124
59.26,1212
59.27,1218
59.28,1283
59.29,1331
59.3,1311
59.31,1279
59.32,1175
59.33,1020
59.34,818
59.35,762
59.36,709
59.37,596
59.38,531
59.39,496
59.4,464
59.41,435
59.42,417
59.43,418
59.44,382
59.45,390
59.46,362
59.47,342
59.48,323
59.49,345
59.5,343
59.51,336
59.52,320
59.53,291
59.54,288
59.55,303
59.56,289
59.57,309
59.58,308
59.59,280
59.6,280
59.61,279
59.62,280
59.63,271
59.64,311
59.65,279
59.66,261
59.67,263
59.68,290
59.69,306
59.7,276
59.71,267
59.72,268
59.73,274
59.74,256
59.75,268
59.76,251
59.77,286
59.78,277
59.79,265
59.8,279
59.81,289
59.82,285
59.83,265
59.84,218
59.85,249
59.86,261
59.87,252
59.88,282
59.89,257
59.9,266
59.91,268
59.92,257
59.93,265
59.94,248
59.95,261
59.96,261
59.97,250
59.98,231
59.99,236
60,244
60.01,260
60.02,247
60.03,245
60.04,237
60.05,233
60.06,232
60.07,237
60.08,260
60.09,233
60.1,279
60.11,247
60.12,239
60.13,229
60.14,235
60.15,251
60.16,247
60.17,244
60.18,243
60.19,246
60.2,264
60.21,209
60.22,208
60.23,244
60.24,228
60.25,223
60.26,232
60.27,243
60.28,248
60.29,229
60.3,220
60.31,226
60.32,211
60.33,213
60.34,214
60.35,254
60.36,230
60.37,222
60.38,220
60.39,213
60.4,206
60.41,226
60.42,226
60.43,235
60.44,237
60.45,224
60.46,228
60.47,226
60.48,233
60.49,218
60.5,209
60.51,235
60.52,263
60.53,237
60.54,219
60.55,201
60.56,202
60.57,226
60.58,245
60.59,227
60.6,216
60.61,218
60.62,208
60.63,210
60.64,226
60.65,208
60.66,214
60.67,204
60.68,246
60.69,225
60.7,247
60.71,226
60.72,245
60.73,235
60.74,245
60.75,236
60.76,237
60.77,241
60.78,251
60.79,245
60.8,275
60.81,274
60.82,262
60.83,271
60.84,271
60.85,266
60.86,245
60.87,291
60.88,282
60.89,322
60.9,321
60.91,352
60.92,378
60.93,364
60.94,392
60.95,411
60.96,393
60.97,385
60.98,375
60.99,366
61,335
61.01,304
61.02,329
61.03,307
61.04,318
61.05,322
61.06,297
61.07,317
61.08,301
61.09,276
61.1,316
61.11,329
61.12,346
61.13,306
61.14,329
61.15,289
61.16,293
61.17,285
61.18,275
61.19,310
61.2,266
61.21,265
61.22,268
61.23,259
61.24,273
61.25,269
61.26,267
61.27,234
61.28,241
61.29,263
61.3,249
61.31,247
61.32,247
61.33,286
61.34,258
61.35,242
61.36,247
61.37,232
61.38,237
61.39,219
61.4,225
61.41,245
61.42,227
61.43,224
61.44,254
61.45,255
61.46,247
61.47,247
61.48,255
61.49,236
61.5,233
61.51,236
61.52,255
61.53,267
61.54,243
61.55,241
61.56,205
61.57,267
61.58,249
61.59,241
61.6,272
61.61,208
61.62,235
61.63,250
61.64,266
61.65,269
61.66,274
61.67,276
61.68,235
61.69,253
61.7,254
61.71,273
61.72,286
61.73,283
61.74,249
61.75,283
61.76,285
61.77,274
61.78,258
61.79,286
61.8,298
61.81,277
61.82,276
61.83,253
61.84,255
61.85,332
61.86,313
61.87,324
61.88,292
61.89,286
61.9,284
61.91,291
61.92,271
61.93,286
61.94,326
61.95,267
61.96,312
61.97,318
61.98,322
61.99,305
62,344
62.01,304
62.02,323
62.03,317
62.04,333
62.05,308
62.06,328
62.07,326
62.08,323
62.09,321
62.1,316
62.11,342
62.12,325
62.13,309
62.14,286
62.15,282
62.16,323
62.17,308
62.18,317
62.19,295
62.2,291
62.21,295
62.22,305
62.23,284
62.24,291
62.25,276
62.26,274
62.27,268
62.28,272
62.29,249
62.3,302
62.31,272
62.32,279
62.33,281
62.34,264
62.35,249
62.36,256
62.37,260
62.38,266
62.39,293
62.4,262
62.41,280
62.42,251
62.43,267
62.44,274
62.45,260
62.46,252
62.47,267
62.48,280
62.49,265
62.5,258
62.51,256
62.52,269
62.53,269
62.54,279
62.55,253
62.56,273
62.57,267
62.58,255
62.59,272
62.6,262
62.61,245
62.62,275
62.63,262
62.64,275
62.65,265
62.66,286
62.67,266
62.68,254
62.69,278
62.7,269
62.71,278
62.72,290
62.73,264
62.74,299
62.75,299
62.76,292
62.77,285
62.78,253
62.79,285
62.8,283
62.81,279
62.82,286
62.83,263
62.84,285
62.85,307
62.86,261
62.87,257
62.88,292
62.89,285
62.9,256
62.91,271
62.92,284
62.93,290
62.94,275
62.95,239
62.96,247
62.97,243
62.98,251
62.99,276
63,264
63.01,252
63.02,289
63.03,277
63.04,255
63.05,298
63.06,275
63.07,289
63.08,257
63.09,278
63.1,288
63.11,276
63.12,274
63.13,268
63.14,295
63.15,299
63.16,282
63.17,286
63.18,288
63.19,274
63.2,295
63.21,317
63.22,313
63.23,271
63.24,302
63.25,269
63.26,291
63.27,272
63.28,273
63.29,278
63.3,281
63.31,261
63.32,285
63.33,295
63.34,270
63.35,259
63.36,284
63.37,251
63.38,285
63.39,297
63.4,277
63.41,296
63.42,258
63.43,264
63.44,277
63.45,293
63.46,275
63.47,246
63.48,266
63.49,284
63.5,271
63.51,248
63.52,278
63.53,252
63.54,270
63.55,275
63.56,264
63.57,253
63.58,257
63.59,241
63.6,248
63.61,235
63.62,232
63.63,230
63.64,246
63.65,238
63.66,262
63.67,225
63.68,247
63.69,240
63.7,240
63.71,232
63.72,252
63.73,238
63.74,261
63.75,220
63.76,233
63.77,233
63.78,233
63.79,226
63.8,215
63.81,216
63.82,243
63.83,223
63.84,256
63.85,249
63.86,224
63.87,249
63.88,252
63.89,268
63.9,241
63.91,252
63.92,275
63.93,259
63.94,274
63.95,255
63.96,275
63.97,230
63.98,272
63.99,271
64,253
64.01,277
64.02,254
64.03,296
64.04,277
64.05,271
64.06,262
64.07,269
64.08,268
64.09,220
64.1,273
64.11,269
64.12,240
64.13,277
64.14,229
64.15,255
64.16,263
64.17,267
64.18,260
64.19,245
64.2,214
64.21,261
64.22,275
64.23,266
64.24,242
64.25,258
64.26,257
64.27,271
64.28,255
64.29,259
64.3,299
64.31,251
64.32,251
64.33,288
64.34,317
64.35,260
64.36,279
64.37,267
64.38,240
64.39,286
64.4,281
64.41,244
64.42,270
64.43,278
64.44,284
64.45,268
64.46,275
64.47,259
64.48,275
64.49,271
64.5,267
64.51,272
64.52,264
64.53,276
64.54,273
64.55,302
64.56,267
64.57,281
64.58,287
64.59,316
64.6,325
64.61,303
64.62,325
64.63,324
64.64,330
64.65,334
64.66,327
64.67,328
64.68,346
64.69,348
64.7,371
64.71,355
64.72,397
64.73,382
64.74,366
64.75,411
64.76,352
64.77,426
64.78,433
64.79,446
64.8,423
64.81,404
64.82,432
64.83,441
64.84,439
64.85,387
64.86,412
64.87,406
64.88,379
64.89,444
64.9,438
64.91,430
64.92,418
64.93,483
64.94,470
64.95,480
64.96,548
64.97,599
64.98,641
64.99,608
65,658
65.01,738
65.02,822
65.03,906
65.04,991
65.05,1148
65.06,1205
65.07,1339
65.08,1402
65.09,1461
65.1,1526
65.11,1534
65.12,1391
65.13,1195
65.14,1134
65.15,977
65.16,979
65.17,844
65.18,811
65.19,778
65.2,765
65.21,777
65.22,745
65.23,807
65.24,800
65.25,913
65.26,887
65.27,975
65.28,912
65.29,932
65.3,878
65.31,788
65.32,706
65.33,598
65.34,569
65.35,509
65.36,482
65.37,448
65.38,375
65.39,367
65.4,395
65.41,319
65.42,310
65.43,313
65.44,337
65.45,312
65.46,295
65.47,275
65.48,285
65.49,272
65.5,262
65.51,285
65.52,265
65.53,275
65.54,246
65.55,237
65.56,263
65.57,257
65.58,244
65.59,239
65.6,251
65.61,245
65.62,247
65.63,250
65.64,247
65.65,246
65.66,237
65.67,244
65.68,238
65.69,223
65.7,255
65.71,253
65.72,213
65.73,219
65.74,212
65.75,222
65.76,232
65.77,214
65.78,248
65.79,220
65.8,245
65.81,212
65.82,214
65.83,232
65.84,231
65.85,234
65.86,233
65.87,221
65.88,233
65.89,243
65.9,227
65.91,237
65.92,233
65.93,233
65.94,189
65.95,192
65.96,206
65.97,239
65.98,201
65.99,208
66,201
66.01,214
66.02,217
66.03,206
66.04,217
66.05,239
66.06,209
66.07,220
66.08,243
66.09,220
66.1,247
66.11,243
66.12,247
66.13,279
66.14,269
66.15,255
66.16,246
66.17,261
66.18,243
66.19,233
66.2,256
66.21,229
66.22,244
66.23,227
66.24,221
66.25,222
66.26,227
66.27,207
66.28,239
66.29,229
66.3,237
66.31,220
66.32,239
66.33,236
66.34,248
66.35,231
66.36,216
66.37,209
66.38,209
66.39,232
66.4,212
66.41,226
66.42,225
66.43,223
66.44,226
66.45,222
66.46,229
66.47,217
66.48,227
66.49,258
66.5,265
66.51,219
66.52,233
66.53,210
66.54,210
66.55,217
66.56,232
66.57,210
66.58,202
66.59,220
66.6,215
66.61,204
66.62,198
66.63,215
66.64,213
66.65,209
66.66,213
66.67,217
66.68,206
66.69,206
66.7,234
66.71,210
66.72,230
66.73,238
66.74,222
66.75,239
66.76,233
66.77,235
66.78,215
66.79,230
66.8,237
66.81,255
66.82,243
66.83,222
66.84,243
66.85,256
66.86,215
66.87,228
66.88,240
66.89,239
66.9,250
66.91,206
66.92,248
66.93,218
66.94,227
66.95,217
66.96,211
66.97,219
66.98,230
66.99,246
67,226
67.01,224
67.02,211
67.03,203
67.04,235
67.05,214
67.06,230
67.07,260
67.08,237
67.09,249
67.1,213
67.11,212
67.12,241
67.13,222
67.14,229
67.15,209
67.16,242
67.17,231
67.18,223
67.19,217
67.2,200
67.21,241
67.22,220
67.23,215
67.24,224
67.25,248
67.26,225
67.27,236
67.28,234
67.29,234
67.3,251
67.31,249
67.32,246
67.33,233
67.34,224
67.35,225
67.36,211
67.37,210
67.38,224
67.39,234
67.4,237
67.41,214
67.42,226
67.43,235
67.44,226
67.45,236
67.46,238
67.47,237
67.48,240
67.49,250
67.5,239
67.51,229
67.52,239
67.53,243
67.54,243
67.55,215
67.56,229
67.57,242
67.58,241
67.59,237
67.6,230
67.61,225
67.62,214
67.63,216
67.64,228
67.65,223
67.66,230
67.67,221
67.68,226
67.69,233
67.7,225
67.71,236
67.72,219
67.73,235
67.74,233
67.75,212
67.76,233
67.77,236
67.78,245
67.79,225
67.8,244
67.81,225
67.82,228
67.83,220
67.84,213
67.85,201
67.86,212
67.87,221
67.88,229
67.89,209
67.9,234
67.91,216
67.92,213
67.93,211
67.94,224
67.95,216
67.96,210
67.97,206
67.98,223
67.99,234
68,205
68.01,216
68.02,226
68.03,250
68.04,196
68.05,223
68.06,203
68.07,189
68.08,221
68.09,211
68.1,216
68.11,212
68.12,214
68.13,183
68.14,203
68.15,201
68.16,204
68.17,195
68.18,195
68.19,213
68.2,197
68.21,195
68.22,178
68.23,229
68.24,198
68.25,211
68.26,225
68.27,221
68.28,219
68.29,204
68.3,230
68.31,212
68.32,232
68.33,217
68.34,201
68.35,211
68.36,222
68.37,233
68.38,208
68.39,195
68.4,197
68.41,240
68.42,237
68.43,211
68.44,221
68.45,229
68.46,230
68.47,240
68.48,227
68.49,254
68.5,255
68.51,229
68.52,247
68.53,230
68.54,269
68.55,254
68.56,273
68.57,251
68.58,263
68.59,307
68.6,265
68.61,286
68.62,306
68.63,288
68.64,295
68.65,306
68.66,286
68.67,341
68.68,330
68.69,279
68.7,315
68.71,278
68.72,312
68.73,313
68.74,266
68.75,302
68.76,289
68.77,326
68.78,303
68.79,279
68.8,291
68.81,291
68.82,278
68.83,311
68.84,264
68.85,244
68.86,256
68.87,265
68.88,256
68.89,285
68.9,267
68.91,256
68.92,260
68.93,280
68.94,282
68.95,269
68.96,258
68.97,247
68.98,259
68.99,269
69,262
69.01,255
69.02,272
69.03,266
69.04,276
69.05,261
69.06,260
69.07,254
69.08,247
69.09,255
69.1,256
69.11,239
69.12,235
69.13,231
69.14,232
69.15,239
69.16,243
69.17,248
69.18,220
69.19,244
69.2,231
69.21,266
69.22,253
69.23,243
69.24,219
69.25,256
69.26,250
69.27,230
69.28,239
69.29,241
69.3,232
69.31,241
69.32,257
69.33,255
69.34,255
69.35,248
69.36,263
69.37,284
69.38,273
69.39,263
69.4,268
69.41,295
69.42,295
69.43,350
69.44,313
69.45,335
69.46,348
69.47,373
69.48,347
69.49,337
69.5,330
69.51,283
69.52,289
69.53,293
69.54,292
69.55,283
69.56,254
69.57,262
69.58,280
69.59,284
69.6,308
69.61,277
69.62,260
69.63,326
69.64,305
69.65,321
69.66,316
69.67,303
69.68,317
69.69,301
69.7,304
69.71,303
69.72,289
69.73,282
69.74,291
69.75,313
69.76,276
69.77,243
69.78,285
69.79,280
69.8,275
69.81,273
69.82,274
69.83,288
69.84,265
69.85,292
69.86,291
69.87,288
69.88,260
69.89,266
69.9,266
69.91,297
69.92,256
69.93,268
69.94,308
69.95,263
69.96,272
69.97,271
69.98,265
69.99,258
70,267
70.01,262
70.02,282
70.03,294
70.04,306
70.05,257
70.06,284
70.07,270
70.08,263
70.09,257
70.1,272
70.11,268
70.12,290
70.13,285
70.14,276
70.15,291
70.16,307
70.17,295
70.18,293
70.19,276
70.2,292
70.21,304
70.22,308
70.23,306
70.24,294
70.25,304
70.26,349
70.27,357
70.28,360
70.29,362
70.3,379
70.31,389
70.32,383
70.33,395
70.34,393
70.35,393
70.36,414
70.37,403
70.38,439
70.39,426
70.4,423
70.41,454
70.42,415
70.43,412
70.44,404
70.45,427
70.46,372
70.47,373
70.48,376
70.49,370
70.5,374
70.51,316
70.52,341
70.53,345
70.54,338
70.55,363
70.56,349
70.57,392
70.58,367
70.59,354
70.6,368
70.61,359
70.62,371
70.63,351
70.64,331
70.65,363
70.66,331
70.67,347
70.68,355
70.69,316
70.7,313
70.71,326
70.72,301
70.73,283
70.74,281
70.75,279
70.76,261
70.77,246
70.78,267
70.79,269
70.8,255
70.81,263
70.82,245
70.83,245
70.84,249
70.85,256
70.86,241
70.87,250
70.88,219
70.89,242
70.9,255
70.91,231
70.92,240
70.93,229
70.94,258
70.95,251
70.96,215
70.97,219
70.98,203
70.99,219
71,214
71.01,220
71.02,235
71.03,217
71.04,220
71.05,207
71.06,205
71.07,225
71.08,240
71.09,212
71.1,202
71.11,217
71.12,225
71.13,238
71.14,217
71.15,210
71.16,230
71.17,217
71.18,225
71.19,237
71.2,203
71.21,204
71.22,209
71.23,200
71.24,253
71.25,221
71.26,226
71.27,239
71.28,201
71.29,214
71.3,216
71.31,217
71.32,233
71.33,221
71.34,221
71.35,235
71.36,214
71.37,237
71.38,224
71.39,224
71.4,277
71.41,216
71.42,228
71.43,242
71.44,204
71.45,241
71.46,231
71.47,236
71.48,243
71.49,257
71.5,285
71.51,238
71.52,255
71.53,268
71.54,270
71.55,262
71.56,283
71.57,292
71.58,269
71.59,238
71.6,264
71.61,257
71.62,277
71.63,253
71.64,268
71.65,255
71.66,271
71.67,276
71.68,271
71.69,294
71.7,308
71.71,328
71.72,353
71.73,374
71.74,376
71.75,391
71.76,421
71.77,424
71.78,437
71.79,454
71.8,435
71.81,390
71.82,427
71.83,387
71.84,357
71.85,335
71.86,288
71.87,320
71.88,314
71.89,304
71.9,288
71.91,312
71.92,281
71.93,273
71.94,318
71.95,305
71.96,334
71.97,313
71.98,310
71.99,341
72,350
72.01,335
72.02,298
72.03,279
72.04,277
72.05,264
72.06,277
72.07,279
72.08,285
72.09,257
72.1,247
72.11,237
72.12,239
72.13,228
72.14,225
72.15,235
72.16,234
72.17,213
72.18,204
72.19,188
72.2,198
72.21,187
72.22,194
72.23,202
72.24,201
72.25,211
72.26,204
72.27,210
72.28,210
72.29,234
72.3,211
72.31,213
72.32,194
72.33,202
72.34,194
72.35,193
72.36,199
72.37,198
72.38,210
72.39,204
72.4,212
72.41,212
72.42,225
72.43,211
72.44,205
72.45,210
72.46,215
72.47,186
72.48,224
72.49,207
72.5,218
72.51,245
72.52,216
72.53,229
72.54,217
72.55,203
72.56,205
72.57,250
72.58,221
72.59,247
72.6,223
72.61,224
72.62,234
72.63,208
72.64,212
72.65,234
72.66,247
72.67,244
72.68,234
72.69,250
72.7,265
72.71,255
72.72,262
72.73,281
72.74,298
72.75,274
72.76,286
72.77,315
72.78,301
72.79,289
72.8,301
72.81,274
72.82,277
72.83,286
72.84,269
72.85,315
72.86,269
72.87,246
72.88,285
72.89,284
72.9,263
72.91,244
72.92,239
72.93,247
72.94,283
72.95,234
72.96,258
72.97,268
72.98,255
72.99,231
73,267
73.01,249
73.02,269
73.03,245
73.04,241
73.05,268
73.06,254
73.07,221
73.08,224
73.09,221
73.1,197
73.11,235
73.12,208
73.13,216
73.14,242
73.15,236
73.16,215
73.17,219
73.18,208
73.19,207
73.2,208
73.21,220
73.22,198
73.23,194
73.24,243
73.25,194
73.26,175
73.27,206
73.28,207
73.29,207
73.3,213
73.31,197
73.32,214
73.33,225
73.34,213
73.35,214
73.36,218
73.37,214
73.38,201
73.39,213
73.4,202
73.41,205
73.42,186
73.43,200
73.44,205
73.45,218
73.46,220
73.47,184
73.48,196
73.49,196
73.5,204
73.51,202
73.52,202
73.53,205
73.54,203
73.55,194
73.56,201
73.57,209
73.58,215
73.59,226
73.6,216
73.61,226
73.62,220
73.63,208
73.64,211
73.65,213
73.66,204
73.67,218
73.68,223
73.69,195
73.7,220
73.71,201
73.72,204
73.73,183
73.74,206
73.75,200
73.76,189
73.77,193
73.78,197
73.79,202
73.8,200
73.81,215
73.82,188
73.83,164
73.84,200
73.85,179
73.86,204
73.87,190
73.88,174
73.89,211
73.9,221
73.91,225
73.92,221
73.93,209
73.94,192
73.95,223
73.96,189
73.97,190
73.98,212
73.99,206
74,228
74.01,231
74.02,235
74.03,196
74.04,212
74.05,232
74.06,225
74.07,203
74.08,202
74.09,198
74.1,200
74.11,237
74.12,198
74.13,187
74.14,207
74.15,190
74.16,246
74.17,221
74.18,214
74.19,227
74.2,212
74.21,216
74.22,200
74.23,187
74.24,212
74.25,207
74.26,206
74.27,212
74.28,197
74.29,207
74.3,211
74.31,237
74.32,212
74.33,248
74.34,196
74.35,227
74.36,213
74.37,229
74.38,191
74.39,223
74.4,215
74.41,224
74.42,242
74.43,235
74.44,241
74.45,231
74.46,249
74.47,260
74.48,235
74.49,238
74.5,218
74.51,250
74.52,242
74.53,252
74.54,247
74.55,279
74.56,246
74.57,248
74.58,306
74.59,289
74.6,280
74.61,272
74.62,274
74.63,252
74.64,275
74.65,306
74.66,260
74.67,269
74.68,237
74.69,267
74.7,237
74.71,239
74.72,265
74.73,239
74.74,242
74.75,266
74.76,249
74.77,276
74.78,242
74.79,254
74.8,271
74.81,248
74.82,283
74.83,255
74.84,282
74.85,244
74.86,259
74.87,257
74.88,263
74.89,257
74.9,235
74.91,265
74.92,251
74.93,228
74.94,260
74.95,271
74.96,239
74.97,236
74.98,218
74.99,238
75,212
75.01,212
75.02,233
75.03,242
75.04,237
75.05,244
75.06,238
75.07,235
75.08,233
75.09,218
75.1,238
75.11,245
75.12,240
75.13,235
75.14,237
75.15,288
75.16,251
75.17,265
75.18,260
75.19,260
75.2,248
75.21,261
75.22,226
75.23,279
75.24,246
75.25,254
75.26,252
75.27,224
75.28,238
75.29,230
75.3,231
75.31,231
75.32,252
75.33,246
75.34,257
75.35,262
75.36,249
75.37,246
75.38,231
75.39,266
75.4,267
75.41,263
75.42,267
75.43,271
75.44,296
75.45,280
75.46,282
75.47,247
75.48,299
75.49,283
75.5,282
75.51,269
75.52,272
75.53,270
75.54,288
75.55,258
75.56,253
75.57,264
75.58,276
75.59,284
75.6,237
75.61,257
75.62,254
75.63,274
75.64,248
75.65,235
75.66,257
75.67,265
75.68,248
75.69,279
75.7,239
75.71,270
75.72,245
75.73,241
75.74,258
75.75,249
75.76,245
75.77,252
75.78,245
75.79,255
75.8,242
75.81,228
75.82,204
75.83,235
75.84,240
75.85,234
75.86,229
75.87,213
75.88,244
75.89,227
75.9,214
75.91,231
75.92,237
75.93,241
75.94,204
75.95,235
75.96,235
75.97,242
75.98,219
75.99,232
76,218
76.01,225
76.02,192
76.03,209
76.04,218
76.05,216
76.06,195
76.07,210
76.08,222
76.09,209
76.1,231
76.11,200
76.12,206
76.13,222
76.14,216
76.15,212
76.16,231
76.17,213
76.18,208
76.19,245
76.2,233
76.21,215
76.22,240
76.23,242
76.24,229
76.25,233
76.26,245
76.27,227
76.28,246
76.29,220
76.3,269
76.31,257
76.32,241
76.33,262
76.34,233
76.35,235
76.36,233
76.37,226
76.38,243
76.39,240
76.4,239
76.41,242
76.42,225
76.43,268
76.44,242
76.45,239
76.46,222
76.47,201
76.48,216
76.49,254
76.5,238
76.51,235
76.52,236
76.53,260
76.54,245
76.55,274
76.56,287
76.57,264
76.58,283
76.59,309
76.6,268
76.61,256
76.62,277
76.63,254
76.64,273
76.65,269
76.66,286
76.67,285
76.68,271
76.69,239
76.7,251
76.71,262
76.72,281
76.73,299
76.74,281
76.75,246
76.76,247
76.77,257
76.78,269
76.79,271
76.8,265
76.81,294
76.82,277
76.83,295
76.84,254
76.85,302
76.86,265
76.87,288
76.88,277
76.89,297
76.9,319
76.91,277
76.92,241
76.93,268
76.94,253
76.95,269
76.96,276
76.97,253
76.98,280
76.99,248
77,292
77.01,273
77.02,262
77.03,297
77.04,260
77.05,256
77.06,294
77.07,271
77.08,297
77.09,289
77.1,287
77.11,296
77.12,329
77.13,312
77.14,287
77.15,301
77.16,318
77.17,284
77.18,313
77.19,310
77.2,314
77.21,314
77.22,295
77.23,288
77.24,304
77.25,317
77.26,320
77.27,294
77.28,320
77.29,307
77.3,276
77.31,298
77.32,321
77.33,323
77.34,343
77.35,332
77.36,351
77.37,366
77.38,302
77.39,333
77.4,330
77.41,352
77.42,394
77.43,383
77.44,377
77.45,371
77.46,404
77.47,397
77.48,402
77.49,429
77.5,414
77.51,414
77.52,443
77.53,476
77.54,493
77.55,469
77.56,507
77.57,467
77.58,484
77.59,467
77.6,469
77.61,497
77.62,466
77.63,471
77.64,450
77.65,450
77.66,420
77.67,461
77.68,435
77.69,396
77.7,441
77.71,430
77.72,420
77.73,437
77.74,439
77.75,407
77.76,429
77.77,416
77.78,425
77.79,397
77.8,386
77.81,416
77.82,408
77.83,413
77.84,388
77.85,419
77.86,369
77.87,407
77.88,363
77.89,378
77.9,372
77.91,391
77.92,345
77.93,372
77.94,362
77.95,354
77.96,346
77.97,340
77.98,343
77.99,337
78,336
78.01,318
78.02,294
78.03,315
78.04,288
78.05,290
78.06,313
78.07,296
78.08,299
78.09,305
78.1,294
78.11,297
78.12,284
78.13,307
78.14,283
78.15,329
78.16,299
78.17,292
78.18,308
78.19,277
78.2,260
78.21,291
78.22,263
78.23,269
78.24,298
78.25,282
78.26,292
78.27,274
78.28,264
78.29,273
78.3,256
78.31,264
78.32,273
78.33,252
78.34,280
78.35,293
78.36,278
78.37,280
78.38,257
78.39,274
78.4,247
78.41,262
78.42,252
78.43,257
78.44,289
78.45,270
78.46,246
78.47,247
78.48,268
78.49,256
78.5,260
78.51,268
78.52,283
78.53,284
78.54,282
78.55,278
78.56,317
78.57,266
78.58,254
78.59,267
78.6,290
78.61,267
78.62,288
78.63,281
78.64,292
78.65,310
78.66,288
78.67,256
78.68,271
78.69,280
78.7,296
78.71,268
78.72,305
78.73,320
78.74,308
78.75,254
78.76,291
78.77,306
78.78,328
78.79,329
78.8,351
78.81,344
78.82,335
78.83,350
78.84,332
78.85,361
78.86,382
78.87,353
78.88,361
78.89,370
78.9,400
78.91,414
78.92,417
78.93,364
78.94,374
78.95,361
78.96,325
78.97,335
78.98,343
78.99,337
79,341
79.01,355
79.02,326
79.03,316
79.04,323
79.05,336
79.06,350
79.07,308
79.08,350
79.09,295
79.1,336
79.11,335
79.12,346
79.13,346
79.14,358
79.15,339
79.16,320
79.17,318
79.18,352
79.19,308
79.2,353
79.21,328
79.22,325
79.23,317
79.24,332
79.25,306
79.26,312
79.27,304
79.28,291
79.29,316
79.3,335
79.31,318
79.32,295
79.33,313
79.34,333
79.35,289
79.36,336
79.37,354
79.38,312
79.39,266
79.4,312
79.41,320
79.42,292
79.43,282
79.44,283
79.45,324
79.46,309
79.47,314
79.48,306
79.49,308
79.5,302
79.51,321
79.52,309
79.53,335
79.54,304
79.55,360
79.56,305
79.57,320
79.58,353
79.59,312
79.6,318
79.61,355
79.62,310
79.63,307
79.64,339
79.65,314
79.66,331
79.67,343
79.68,333
79.69,385
79.7,340
79.71,310
79.72,331
79.73,369
79.74,371
79.75,351
79.76,394
79.77,365
79.78,402
79.79,387
79.8,400
79.81,426
79.82,408
79.83,413
79.84,424
79.85,406
79.86,464
79.87,419
79.88,441
79.89,463
79.9,457
79.91,441
79.92,444
79.93,454
79.94,420
79.95,385
79.96,408
79.97,390
79.98,417
79.99,384
80,406
